,TP9,AF7,AF8,TP10,Right AUX,timestamps
0,-307.617,41.992,-887.695,-209.961,59.082,1730817199.234
1,-142.578,31.250,279.785,59.082,53.711,1730817199.238
2,285.156,36.133,-812.500,292.969,-18.066,1730817199.242
3,367.188,42.480,395.996,166.016,-5.371,1730817199.245
4,22.461,48.340,-904.297,-131.348,69.336,1730817199.249
5,-303.711,44.922,-947.754,-222.168,97.656,1730817199.253
6,-179.688,41.992,208.496,21.973,67.871,1730817199.257
7,254.395,41.504,-810.059,284.668,16.602,1730817199.261
8,0.000,-0.488,0.000,0.000,-0.488,1730817199.265
9,-0.488,0.000,0.000,-0.488,-1.465,1730817199.269
10,-9.277,0.977,-36.133,-6.836,16.602,1730817199.272
11,25.879,-2.441,132.812,22.461,-29.297,1730817199.276
12,-105.469,13.672,-509.766,-90.820,151.855,1730817199.279
13,-201.172,35.645,-357.910,-132.324,534.668,1730817199.283
14,127.930,38.574,966.309,182.129,617.188,1730817199.287
15,341.309,38.574,-897.949,315.918,550.293,1730817199.291
16,155.762,35.645,114.258,97.168,489.746,1730817199.295
17,-169.434,40.039,-1000.000,-173.828,451.660,1730817199.298
18,-236.816,36.621,-497.559,-168.457,464.355,1730817199.302
19,65.918,26.367,785.645,135.254,462.891,1730817199.306
20,314.941,33.691,-847.168,303.223,399.414,1730817199.310
21,177.246,44.922,330.078,110.840,409.668,1730817199.314
22,-151.367,39.551,-975.586,-168.945,394.043,1730817199.317
23,-248.535,33.691,-805.664,-197.266,338.867,1730817199.321
24,24.414,31.738,410.645,81.055,333.984,1730817199.331
25,308.105,25.391,-814.941,295.898,344.727,1730817199.335
26,208.008,24.902,358.398,145.996,332.031,1730817199.339
27,-118.652,30.762,-953.125,-144.531,268.555,1730817199.343
28,-254.395,31.738,-894.531,-214.844,234.375,1730817199.347
29,-24.902,27.832,288.086,38.574,202.637,1730817199.352
30,273.926,26.855,-822.754,283.691,192.871,1730817199.356
31,231.934,29.785,461.914,179.688,231.445,1730817199.360
32,-74.707,38.086,-836.914,-95.215,195.801,1730817199.364
33,-246.582,33.691,-990.723,-198.242,130.371,1730817199.368
34,-60.059,27.344,173.828,11.230,138.184,1730817199.372
35,262.695,31.250,-870.605,269.531,116.211,1730817199.376
36,278.809,41.016,726.074,221.191,187.012,1730817199.392
37,-17.090,47.852,-479.980,-41.992,191.406,1730817199.396
38,-239.258,39.551,-1000.000,-198.730,84.961,1730817199.400
39,-106.934,35.156,-92.773,-33.691,100.098,1730817199.405
40,220.703,37.109,-880.859,248.535,107.422,1730817199.409
41,294.922,40.527,737.793,244.629,94.238,1730817199.414
42,28.320,35.645,-497.070,-16.602,25.879,1730817199.418
43,-223.633,27.344,-1000.000,-196.289,62.500,1730817199.422
44,-136.719,28.320,-154.297,-70.801,110.352,1730817199.427
45,190.430,34.668,-919.922,213.379,91.309,1730817199.431
46,312.500,35.645,860.352,261.719,130.859,1730817199.435
47,73.242,37.598,-340.820,17.090,112.793,1730817199.440
48,-204.590,47.852,-1000.000,-188.477,65.430,1730817199.461
49,-171.875,46.387,-309.570,-101.074,19.531,1730817199.466
50,151.367,32.227,955.078,190.430,53.223,1730817199.471
51,326.172,31.250,-966.309,279.785,54.688,1730817199.475
52,118.652,40.039,-60.547,49.805,19.531,1730817199.480
53,-176.270,46.387,-1000.000,-175.781,33.203,1730817199.485
54,-184.570,37.109,-568.359,-125.977,44.434,1730817199.490
55,119.629,26.855,726.562,162.109,77.637,1730817199.494
56,322.754,37.109,-874.023,292.969,130.371,1730817199.499
57,149.902,34.180,33.203,89.844,99.121,1730817199.504
58,-154.785,38.574,-1000.000,-166.504,50.293,1730817199.508
59,-206.543,53.711,-607.910,-155.762,81.055,1730817199.513
60,81.055,47.852,662.109,120.117,128.906,1730817199.533
61,320.801,38.086,-845.703,281.250,105.469,1730817199.538
62,187.012,39.062,99.121,115.723,33.691,1730817199.543
63,-129.883,40.527,-1000.000,-147.461,9.766,1730817199.548
64,-226.562,41.016,-750.488,-177.734,27.832,1730817199.553
65,34.180,36.133,462.402,84.473,76.172,1730817199.558
66,306.641,32.715,-806.152,285.645,73.730,1730817199.563
67,202.148,33.203,277.832,138.184,66.406,1730817199.568
68,-115.723,33.203,-985.352,-144.531,45.410,1730817199.573
69,-240.234,38.574,-910.156,-199.707,59.082,1730817199.578
70,-6.836,32.227,235.352,46.387,58.594,1730817199.583
71,295.410,28.809,-814.453,279.297,42.480,1730817199.588
72,240.234,32.227,424.805,172.363,67.383,1730817199.605
73,-86.426,30.273,-872.070,-126.953,41.504,1730817199.610
74,-263.184,26.855,-1000.000,-229.004,50.781,1730817199.615
75,-53.711,30.762,116.211,4.395,3.906,1730817199.620
76,261.719,35.645,-806.152,261.719,21.484,1730817199.625
77,245.605,37.109,431.641,179.688,50.293,1730817199.630
78,-61.035,45.898,-866.699,-108.398,-10.254,1730817199.635
79,-269.043,41.016,-1000.000,-224.609,32.715,1730817199.641
80,-97.168,31.250,10.254,-28.320,97.656,1730817199.646
81,223.145,35.645,-870.605,233.398,94.727,1730817199.651
82,249.512,37.109,717.773,192.871,70.312,1730817199.656
83,-36.133,42.480,-508.301,-84.473,56.641,1730817199.661
84,-266.602,48.828,-1000.000,-250.000,70.801,1730817199.675
85,-145.996,45.410,-194.336,-98.145,15.625,1730817199.681
86,189.941,41.992,-940.430,199.707,-23.926,1730817199.686
87,279.297,45.898,857.422,223.633,48.340,1730817199.691
88,25.391,53.711,-327.637,-42.969,36.133,1730817199.696
89,-230.469,57.129,-1000.000,-233.887,-16.602,1730817199.702
90,-155.762,54.688,-276.855,-100.586,-24.414,1730817199.707
91,189.453,49.805,-976.074,206.055,20.020,1730817199.712
92,334.473,52.734,941.895,269.531,51.270,1730817199.717
93,86.426,55.176,-237.305,22.949,56.641,1730817199.723
94,-188.477,54.199,-1000.000,-186.523,49.316,1730817199.728
95,-146.484,51.270,-402.832,-91.797,15.137,1730817199.733
96,167.480,42.480,887.207,217.285,41.504,1730817199.740
97,358.398,40.527,-918.945,311.523,34.180,1730817199.745
98,186.523,45.410,-19.531,94.238,28.320,1730817199.750
99,-109.375,47.363,-1000.000,-111.328,47.363,1730817199.756
100,-144.531,45.898,-602.051,-97.168,29.297,1730817199.761
101,151.367,44.434,669.922,174.316,14.160,1730817199.766
102,389.160,43.457,-847.656,352.051,19.043,1730817199.771
103,238.770,47.852,85.449,160.156,-41.504,1730817199.777
104,-78.125,54.199,-1000.000,-103.027,-24.902,1730817199.782
105,-146.484,49.805,-690.918,-96.680,13.184,1730817199.787
106,134.766,40.039,559.082,169.922,74.707,1730817199.792
107,389.648,40.039,-806.641,339.355,103.027,1730817199.798
108,264.160,41.504,200.195,169.434,54.199,1730817199.809
109,-46.387,46.387,-1000.000,-109.375,80.566,1730817199.814
110,-182.129,42.969,-815.430,-161.133,65.918,1730817199.820
111,49.316,39.062,373.535,106.934,25.391,1730817199.825
112,330.078,40.039,-813.477,327.148,46.875,1730817199.830
113,251.465,41.504,376.953,191.895,73.730,1730817199.836
114,-49.316,39.551,-908.691,-89.844,31.738,1730817199.841
115,-196.289,39.551,-943.848,-169.922,47.852,1730817199.846
116,-4.883,37.598,180.664,47.363,86.914,1730817199.852
117,283.203,33.691,-828.613,280.762,84.473,1730817199.857
118,273.926,39.062,472.656,210.449,16.602,1730817199.862
119,-18.555,42.969,-808.105,-66.895,12.207,1730817199.868
120,-220.215,42.969,-1000.000,-198.730,42.480,1730817199.876
121,-60.547,37.109,16.113,-3.906,30.762,1730817199.881
122,250.977,41.016,-833.008,266.113,59.570,1730817199.886
123,278.320,46.875,576.660,226.562,35.645,1730817199.892
124,7.812,42.969,-705.078,-42.969,29.297,1730817199.897
125,-216.309,40.039,-1000.000,-191.406,24.414,1730817199.902
126,-110.352,35.156,-27.344,-35.156,20.996,1730817199.908
127,206.055,30.273,-892.090,236.816,43.945,1730817199.913
128,288.086,36.133,783.203,252.930,46.387,1730817199.919
129,39.062,44.434,-416.504,4.395,-19.043,1730817199.924
130,-214.844,44.434,-1000.000,-189.453,-58.105,1730817199.929
131,-136.230,42.969,-210.449,-68.848,-12.695,1730817199.935
132,194.824,41.992,-958.496,227.539,-20.508,1730817199.949
133,305.176,39.062,928.711,269.043,19.043,1730817199.954
134,69.336,41.992,-219.727,11.719,40.039,1730817199.960
135,-192.871,45.898,-1000.000,-206.055,13.672,1730817199.965
136,-157.715,41.992,-291.504,-107.422,51.270,1730817199.971
137,147.949,38.574,-996.582,194.824,85.938,1730817199.976
138,311.523,40.039,993.652,287.109,82.031,1730817199.982
139,126.465,44.434,-151.855,43.945,36.621,1730817199.987
140,-165.039,50.293,-1000.000,-189.453,46.387,1730817199.992
141,-194.824,44.434,-417.480,-122.070,63.965,1730817199.998
142,112.793,34.180,868.164,168.945,29.297,1730817200.003
143,317.871,30.273,-902.344,270.996,33.691,1730817200.009
144,143.555,39.551,14.648,57.617,35.645,1730817200.018
145,-164.062,41.504,-1000.000,-170.898,14.160,1730817200.023
146,-212.891,36.133,-671.875,-151.855,-23.926,1730817200.028
147,74.219,33.203,553.711,129.883,8.789,1730817200.034
148,309.082,30.273,-823.730,286.133,40.039,1730817200.039
149,184.082,38.086,188.477,103.027,98.633,1730817200.045
150,-117.188,41.016,-1000.000,-155.762,51.270,1730817200.050
151,-215.332,35.156,-718.750,-169.434,24.902,1730817200.056
152,38.574,28.809,536.133,98.145,86.426,1730817200.061
153,302.734,26.367,-806.641,284.180,90.820,1730817200.067
154,208.984,36.133,210.938,143.066,89.844,1730817200.072
155,-98.145,35.645,-1000.000,-118.164,27.832,1730817200.077
156,-242.676,25.879,-865.723,-183.594,5.859,1730817200.089
157,-15.137,23.926,293.945,58.594,3.418,1730817200.094
158,298.828,26.367,-807.129,296.875,16.602,1730817200.100
159,254.883,30.762,368.652,174.316,24.414,1730817200.105
160,-64.941,30.762,-909.668,-130.859,-5.859,1730817200.111
161,-233.887,33.203,-996.094,-215.820,58.105,1730817200.116
162,-42.480,32.227,91.797,32.227,70.801,1730817200.122
163,266.602,28.809,-835.938,283.691,19.531,1730817200.127
164,275.879,31.738,543.945,208.008,11.719,1730817200.133
165,-22.461,33.203,-723.145,-69.824,18.066,1730817200.138
166,-241.211,35.645,-1000.000,-209.961,13.672,1730817200.144
167,-92.773,41.016,-95.215,-20.020,-0.488,1730817200.149
168,240.234,37.109,-846.191,261.230,-4.395,1730817200.157
169,286.621,35.645,627.930,226.074,10.742,1730817200.163
170,6.836,40.527,-661.133,-47.852,43.457,1730817200.168
171,-226.074,43.457,-1000.000,-209.961,38.574,1730817200.174
172,-135.742,41.016,-93.262,-67.383,25.391,1730817200.179
173,179.688,30.762,-906.738,211.914,31.250,1730817200.185
174,290.039,33.203,817.871,250.488,-15.137,1730817200.190
175,48.828,41.016,-353.516,0.000,22.461,1730817200.196
176,-216.309,42.480,-1000.000,-198.730,10.254,1730817200.201
177,-167.480,41.992,-335.938,-92.773,-13.672,1730817200.207
178,148.926,35.156,966.309,198.242,45.410,1730817200.212
179,294.922,32.227,968.750,269.043,44.922,1730817200.218
180,91.797,40.527,-192.383,21.484,40.039,1730817200.220
181,-174.805,42.480,-1000.000,-209.473,65.430,1730817200.226
182,-178.711,38.086,-375.488,-136.719,73.242,1730817200.231
183,118.164,35.156,937.988,171.387,46.387,1730817200.237
184,312.988,36.621,-961.426,272.461,24.414,1730817200.242
185,135.742,42.480,-93.262,51.758,2.930,1730817200.248
186,-171.387,41.992,-1000.000,-194.824,-32.715,1730817200.253
187,-215.820,38.574,-517.090,-160.156,0.977,1730817200.259
188,77.637,36.133,770.020,133.301,50.781,1730817200.264
189,307.129,35.156,-871.094,273.438,24.414,1730817200.270
190,166.016,40.039,53.223,88.379,15.625,1730817200.275
191,-135.254,40.039,-1000.000,-166.504,20.020,1730817200.281
192,-229.980,34.180,-727.539,-177.734,18.066,1730817200.281
193,29.785,33.691,469.727,98.633,37.598,1730817200.287
194,293.457,35.645,-811.035,287.598,34.668,1730817200.292
195,203.613,34.668,232.910,125.977,56.152,1730817200.298
196,-105.469,34.668,-1000.000,-149.902,52.246,1730817200.303
197,-247.070,34.180,-842.773,-204.590,7.324,1730817200.309
198,-22.461,28.320,349.121,41.016,-59.570,1730817200.314
199,267.578,24.902,-795.898,250.488,-46.387,1730817200.319
200,221.680,32.227,276.855,136.719,8.301,1730817200.325
201,-83.984,38.574,-1000.000,-129.395,7.324,1730817200.330
202,-252.930,32.715,-912.598,-205.078,5.371,1730817200.336
203,-57.129,26.367,235.840,12.207,41.992,1730817200.341
204,262.207,30.762,-827.637,246.582,15.625,1730817200.337
205,246.094,31.738,517.578,183.594,-14.648,1730817200.343
206,-47.852,32.715,-766.602,-95.215,47.852,1730817200.348
207,-254.883,32.227,-1000.000,-216.309,22.949,1730817200.354
208,-125.488,26.367,45.898,-14.160,-14.160,1730817200.359
209,208.008,26.855,-852.051,241.211,13.184,1730817200.365
210,276.367,34.668,643.555,206.543,25.879,1730817200.370
211,-0.977,38.086,-626.953,-69.336,19.043,1730817200.375
212,-232.910,38.086,-1000.000,-233.398,51.270,1730817200.381
213,-123.535,39.062,-51.270,-48.828,58.594,1730817200.386
214,189.941,33.691,-877.930,240.723,60.547,1730817200.392
215,283.203,31.250,747.070,244.141,53.223,1730817200.397
216,47.363,38.574,-472.656,-26.367,61.035,1730817200.391
217,-198.730,40.039,-1000.000,-218.262,31.738,1730817200.397
218,-150.879,33.691,-169.434,-82.520,40.039,1730817200.402
219,151.367,31.250,-948.242,213.867,34.668,1730817200.407
220,291.504,35.645,933.594,263.672,52.246,1730817200.413
221,72.266,36.133,-191.895,5.859,65.430,1730817200.418
222,-201.172,33.203,-1000.000,-193.359,0.977,1730817200.423
223,-178.711,30.762,-394.531,-96.680,-21.973,1730817200.429
224,122.070,26.855,920.898,174.805,20.020,1730817200.434
225,302.734,27.344,-958.008,274.902,13.184,1730817200.439
226,117.188,27.344,-81.055,62.988,8.789,1730817200.445
227,-177.246,32.715,-1000.000,-179.688,44.434,1730817200.450
228,-211.914,31.738,-488.281,-134.277,38.086,1730817200.440
229,77.148,28.809,814.453,145.508,32.715,1730817200.445
230,300.293,31.250,-889.648,290.527,43.457,1730817200.451
231,158.691,35.645,22.949,112.793,23.438,1730817200.456
232,-142.090,41.992,-1000.000,-154.785,35.645,1730817200.461
233,-218.750,35.156,-609.863,-165.527,60.059,1730817200.466
234,42.480,21.484,660.156,108.887,117.188,1730817200.472
235,284.668,21.973,-825.195,285.645,91.797,1730817200.477
236,176.758,29.297,180.664,122.070,44.922,1730817200.482
237,-128.418,30.762,-1000.000,-148.926,60.547,1730817200.488
238,-241.699,28.320,-828.613,-191.895,34.668,1730817200.493
239,-8.789,30.273,314.453,64.941,-33.203,1730817200.498
240,269.531,26.367,-813.965,272.461,-76.660,1730817200.488
241,221.680,28.809,333.496,145.996,1.953,1730817200.493
242,-72.266,41.016,-971.680,-121.094,8.789,1730817200.498
243,-241.699,37.598,-901.367,-206.055,3.906,1730817200.504
244,-46.875,30.762,280.762,20.996,53.223,1730817200.509
245,269.043,27.832,-803.711,271.973,14.160,1730817200.514
246,255.859,33.691,387.207,192.871,1.953,1730817200.519
247,-41.992,34.668,-904.785,-95.703,48.828,1730817200.524
248,-231.445,30.273,-1000.000,-208.984,13.672,1730817200.530
249,-62.012,36.621,95.215,0.977,-14.648,1730817200.535
250,243.652,38.574,-842.773,244.141,15.137,1730817200.540
251,270.020,38.574,606.445,203.613,17.578,1730817200.545
252,-6.348,39.062,-660.645,-62.988,-31.250,1730817200.538
253,-230.469,37.598,-1000.000,-211.426,-20.020,1730817200.543
254,-110.840,35.156,-48.828,-52.246,42.969,1730817200.548
255,204.590,31.250,-889.160,217.285,61.035,1730817200.553
256,283.203,36.621,765.137,228.027,33.691,1730817200.559
257,37.109,43.457,-431.641,-30.762,65.918,1730817200.564
258,-211.426,41.016,-1000.000,-214.355,66.406,1730817200.569
259,-145.996,37.598,-175.781,-92.773,30.273,1730817200.574
260,166.992,35.645,-909.180,188.965,44.922,1730817200.579
261,293.457,38.574,832.031,238.770,21.484,1730817200.584
262,72.266,40.039,-388.184,-5.371,1.953,1730817200.590
263,-186.035,37.109,-1000.000,-210.938,40.039,1730817200.595
264,-157.227,35.645,-284.668,-116.211,37.598,1730817200.591
265,132.812,32.715,989.746,163.086,-0.977,1730817200.596
266,294.922,33.691,978.027,244.141,8.301,1730817200.601
267,116.211,39.551,-147.949,38.086,30.762,1730817200.606
268,-159.668,45.410,-1000.000,-181.641,36.133,1730817200.612
269,-183.105,40.527,-527.344,-136.719,39.062,1730817200.617
270,97.656,34.668,750.977,142.578,20.996,1730817200.622
271,312.012,38.086,-887.207,281.250,-26.855,1730817200.627
272,166.504,38.086,21.973,95.703,11.719,1730817200.632
273,-128.418,40.527,-1000.000,-151.855,65.430,1730817200.637
274,-195.801,41.016,-572.754,-148.926,47.363,1730817200.642
275,62.012,32.227,709.961,119.141,27.344,1730817200.648
276,297.363,32.227,-845.703,285.156,43.945,1730817200.647
277,186.523,38.086,95.703,116.211,57.129,1730817200.652
278,-115.723,38.574,-1000.000,-147.949,47.363,1730817200.658
279,-227.051,35.156,-712.891,-174.805,40.039,1730817200.663
280,5.859,29.785,533.203,78.613,60.059,1730817200.668
281,270.508,30.762,-832.520,272.461,46.387,1730817200.673
282,204.590,35.156,162.109,135.742,34.180,1730817200.678
283,-87.891,33.203,-1000.000,-132.324,25.391,1730817200.683
284,-232.422,30.762,-861.816,-195.801,15.625,1730817200.688
285,-34.668,31.250,278.320,39.551,65.918,1730817200.693
286,251.953,35.156,-821.289,271.484,116.699,1730817200.699
287,232.910,34.180,456.055,181.641,112.793,1730817200.704
288,-51.758,33.691,-848.145,-89.355,84.961,1730817200.701
289,-234.863,36.621,-991.699,-200.684,39.062,1730817200.706
290,-76.660,34.180,148.438,-2.930,17.090,1730817200.712
291,222.168,32.227,-813.965,249.023,10.742,1730817200.717
292,244.629,31.250,470.703,197.754,-8.789,1730817200.722
293,-25.879,35.645,-835.449,-78.613,-5.859,1730817200.727
294,-237.305,39.551,-1000.000,-214.355,-36.133,1730817200.732
295,-118.164,29.785,30.273,-39.551,32.715,1730817200.737
296,194.336,27.832,-877.441,231.445,52.734,1730817200.742
297,269.043,32.227,737.305,220.215,2.930,1730817200.747
298,17.578,35.156,-471.680,-46.875,65.430,1730817200.752
299,-220.703,34.668,-1000.000,-208.984,82.520,1730817200.757
300,-146.973,27.344,-161.621,-80.078,55.664,1730817200.752
301,162.598,28.809,-932.617,195.801,52.734,1730817200.757
302,281.738,34.668,864.258,234.375,55.664,1730817200.762
303,63.965,38.086,-296.387,-8.789,46.387,1730817200.767
304,-194.336,40.527,-1000.000,-207.031,74.707,1730817200.773
305,-163.574,37.598,-395.996,-117.188,107.910,1730817200.778
306,139.160,35.645,937.988,173.828,78.125,1730817200.783
307,295.898,35.645,957.031,255.371,23.438,1730817200.788
308,97.656,40.039,-237.305,20.020,14.648,1730817200.793
309,-182.617,40.039,-1000.000,-196.289,15.137,1730817200.798
310,-187.988,34.180,-372.070,-131.836,17.578,1730817200.803
311,100.586,31.250,908.203,146.973,-11.719,1730817200.808
312,297.852,33.691,-921.875,261.719,-46.387,1730817200.803
313,142.090,39.551,-6.348,61.035,1.953,1730817200.808
314,-146.973,41.016,-1000.000,-173.340,38.574,1730817200.813
315,-202.637,40.039,-643.066,-156.738,12.207,1730817200.818
316,59.082,41.504,596.680,105.469,18.066,1730817200.823
317,290.039,41.992,-834.961,268.066,74.707,1730817200.828
318,168.945,41.016,119.141,98.633,51.270,1730817200.833
319,-126.953,42.969,-1000.000,-163.574,-35.156,1730817200.838
320,-220.215,38.574,-680.664,-185.059,-38.574,1730817200.843
321,16.602,30.762,569.824,69.336,31.250,1730817200.848
322,277.344,28.809,-815.430,261.719,30.273,1730817200.853
323,201.172,34.668,194.336,129.883,-11.230,1730817200.858
324,-96.680,38.086,-1000.000,-137.695,-20.996,1730817200.850
325,-232.422,33.203,-803.711,-195.801,22.949,1730817200.855
326,-18.066,32.715,401.367,49.316,85.449,1730817200.860
327,265.625,33.203,-812.012,267.090,81.055,1730817200.865
328,223.145,36.133,378.418,160.156,59.082,1730817200.870
329,-66.406,39.551,-889.160,-107.422,19.043,1730817200.875
330,-239.746,39.062,-1000.000,-204.102,-39.551,1730817200.880
331,-69.824,36.133,95.215,0.977,-2.441,1730817200.885
332,237.305,35.645,-824.219,250.977,48.340,1730817200.890
333,251.465,36.133,503.906,196.289,20.508,1730817200.895
334,-30.762,37.109,-796.387,-86.914,-13.184,1730817200.900
335,-240.723,34.180,-1000.000,-216.797,-4.883,1730817200.905
336,-105.957,29.785,40.039,-26.367,31.738,1730817200.895
337,208.984,28.809,-845.703,240.234,70.801,1730817200.900
338,267.578,33.203,628.418,220.215,89.844,1730817200.905
339,5.371,38.574,-632.324,-54.199,93.750,1730817200.910
340,-218.750,40.527,-1000.000,-212.891,18.066,1730817200.914
341,-124.023,35.156,-92.773,-53.223,26.855,1730817200.919
342,189.941,31.250,-898.438,228.027,42.969,1730817200.924
343,303.223,35.645,804.199,255.371,-9.277,1730817200.929
344,68.359,37.109,-384.766,3.906,-10.742,1730817200.934
345,-194.824,36.133,-1000.000,-190.918,2.930,1730817200.939
346,-147.949,36.621,-341.309,-82.031,-4.883,1730817200.944
347,163.086,36.133,956.055,206.055,14.648,1730817200.949
348,314.453,33.691,962.402,281.250,38.086,1730817200.938
349,110.352,38.086,-208.496,41.992,19.043,1730817200.942
350,-172.363,42.480,-1000.000,-183.594,25.391,1730817200.947
351,-180.664,39.062,-374.512,-119.629,-5.371,1730817200.952
352,117.188,29.785,917.480,159.180,-54.688,1730817200.957
353,312.012,28.320,-939.453,285.156,23.926,1730817200.962
354,128.906,33.691,-55.664,63.965,48.828,1730817200.967
355,-171.387,33.691,-1000.000,-191.895,-36.621,1730817200.972
356,-210.938,31.250,-517.090,-153.809,-2.441,1730817200.977
357,61.523,32.227,766.113,128.418,1.953,1730817200.982
358,275.879,36.133,-864.258,276.367,-19.531,1730817200.986
359,147.461,41.504,79.102,83.984,37.109,1730817200.991
360,-143.555,51.270,-1000.000,-170.410,59.570,1730817200.978
361,-235.840,47.363,-714.844,-182.129,18.066,1730817200.983
362,19.531,41.016,503.418,84.961,29.785,1730817200.988
363,278.809,38.574,-811.035,267.578,95.703,1730817200.993
364,184.570,38.574,208.984,108.887,84.961,1730817200.998
365,-114.746,43.945,-1000.000,-156.250,14.160,1730817201.003
366,-240.723,44.922,-832.520,-205.566,-13.672,1730817201.007
367,-12.207,41.504,369.141,44.922,0.977,1730817201.012
368,273.926,37.109,-803.223,259.766,45.898,1730817201.017
369,223.633,38.086,329.590,147.461,71.777,1730817201.022
370,-68.848,43.945,-971.680,-115.723,27.344,1730817201.027
371,-234.375,42.480,-890.625,-200.684,53.711,1730817201.032
372,-53.223,37.109,291.016,17.090,105.469,1730817201.017
373,250.977,33.691,-821.777,265.625,47.363,1730817201.022
374,255.371,39.062,468.750,194.824,39.062,1730817201.027
375,-34.180,38.574,-815.430,-84.961,-12.695,1730817201.032
376,-234.375,39.062,-1000.000,-211.426,-18.066,1730817201.037
377,-84.473,41.992,35.645,-20.996,-5.371,1730817201.041
378,227.051,35.645,-859.863,248.047,-16.602,1730817201.046
379,272.461,35.156,658.691,217.285,59.082,1730817201.051
380,6.836,36.621,-605.957,-51.270,63.477,1730817201.056
381,-222.168,35.645,-1000.000,-208.008,53.223,1730817201.061
382,-121.094,33.691,-72.266,-51.758,37.109,1730817201.065
383,203.125,30.762,-863.770,240.234,22.461,1730817201.070
384,303.223,32.715,690.430,248.047,11.719,1730817201.056
385,60.059,40.527,-575.684,-16.113,30.273,1730817201.060
386,-194.336,45.410,-1000.000,-198.730,73.730,1730817201.065
387,-143.066,39.062,-177.734,-82.031,51.270,1730817201.070
388,169.434,31.250,-939.453,209.473,31.250,1730817201.075
389,315.430,34.668,858.398,266.602,-13.184,1730817201.079
390,99.609,36.133,-299.316,23.438,43.457,1730817201.084
391,-183.594,32.715,-1000.000,-197.266,103.516,1730817201.089
392,-178.223,30.762,-437.012,-118.164,61.035,1730817201.094
393,116.699,24.902,861.816,177.246,38.574,1730817201.098
394,293.457,23.438,-947.754,274.414,20.508,1730817201.103
395,111.816,34.668,-81.543,57.617,15.137,1730817201.108
396,-182.617,38.574,-1000.000,-195.312,32.227,1730817201.092
397,-223.145,30.273,-520.020,-166.992,-9.277,1730817201.097
398,68.848,27.344,784.180,137.207,-32.715,1730817201.102
399,292.969,25.391,-890.137,279.297,-15.137,1730817201.106
400,149.902,27.344,-9.766,79.590,5.371,1730817201.111
401,-149.902,33.691,-1000.000,-172.852,67.871,1730817201.116
402,-229.004,31.738,-654.297,-171.875,43.457,1730817201.120
403,35.156,28.320,598.145,107.422,16.602,1730817201.125
404,288.574,30.273,-833.496,282.715,17.578,1730817201.130
405,189.453,38.086,147.949,112.793,57.617,1730817201.134
406,-114.258,40.039,-1000.000,-154.297,70.801,1730817201.139
407,-239.746,35.645,-855.957,-193.848,22.461,1730817201.144
408,-2.441,34.180,301.270,67.383,5.859,1730817201.129
409,283.691,37.109,-815.430,279.297,-14.648,1730817201.134
410,229.492,41.992,234.375,147.949,-61.035,1730817201.138
411,-71.289,44.922,-1000.000,-135.742,-30.762,1730817201.143
412,-236.328,41.992,-868.652,-212.402,25.879,1730817201.148
413,-40.039,39.062,299.316,27.832,78.613,1730817201.152
414,266.113,40.527,-806.641,270.996,56.152,1730817201.157
415,256.348,46.387,402.344,187.988,52.734,1730817201.162
416,-40.039,51.270,-901.367,-105.469,80.566,1730817201.166
417,-239.746,49.805,-991.699,-222.168,36.133,1730817201.171
418,-78.125,45.898,144.043,-2.441,43.945,1730817201.176
419,242.676,41.504,-843.262,254.883,19.043,1730817201.180
420,284.180,42.969,586.914,204.102,58.594,1730817201.167
421,12.207,46.387,-655.273,-56.641,63.965,1730817201.171
422,-223.145,43.945,-1000.000,-208.008,-41.992,1730817201.176
423,-121.582,36.133,-97.168,-53.223,12.207,1730817201.180
424,200.684,39.062,-891.602,224.609,59.082,1730817201.185
425,292.480,39.551,767.578,232.910,35.156,1730817201.190
426,30.762,32.715,-458.496,-42.969,40.039,1730817201.194
427,-224.609,31.250,-1000.000,-220.703,15.625,1730817201.199
428,-149.902,31.250,-159.668,-81.055,28.320,1730817201.203
429,173.828,30.273,-918.945,213.867,5.371,1730817201.208
430,309.082,30.273,855.957,265.625,18.555,1730817201.213
431,81.543,36.133,-329.102,0.488,63.965,1730817201.217
432,-204.102,40.039,-1000.000,-218.262,-11.230,1730817201.202
433,-187.012,36.133,-316.895,-117.676,-62.988,1730817201.207
434,126.465,36.621,982.910,182.129,1.953,1730817201.212
435,312.988,39.551,985.352,273.926,2.441,1730817201.216
436,122.559,41.504,-131.348,45.410,-18.555,1730817201.221
437,-174.805,40.527,-1000.000,-187.988,5.859,1730817201.225
438,-203.613,29.297,-505.371,-137.207,-36.621,1730817201.230
439,95.215,29.297,784.180,156.738,0.977,1730817201.234
440,321.289,35.156,-876.465,294.922,67.871,1730817201.239
441,167.969,39.551,44.434,86.914,34.668,1730817201.244
442,-141.113,42.969,-1000.000,-175.781,4.395,1730817201.248
443,-216.309,38.574,-601.562,-167.969,-2.930,1730817201.253
444,45.410,32.715,673.828,107.910,13.672,1730817201.239
445,294.922,35.645,-840.332,277.344,9.766,1730817201.243
446,182.129,38.086,101.562,95.215,-18.066,1730817201.248
447,-131.348,36.133,-1000.000,-176.270,37.598,1730817201.252
448,-243.164,35.156,-696.289,-200.195,58.594,1730817201.257
449,3.418,35.645,526.855,67.383,31.250,1730817201.261
450,284.668,32.227,-812.012,275.879,42.969,1730817201.266
451,217.773,31.250,303.223,140.625,82.031,1730817201.270
452,-91.797,36.621,-964.355,-135.254,70.312,1730817201.275
453,-254.883,31.738,-934.570,-204.102,11.230,1730817201.280
454,-50.781,27.344,209.473,38.574,-10.742,1730817201.284
455,258.301,28.809,-813.965,275.879,6.348,1730817201.289
456,241.211,32.715,447.754,178.223,34.668,1730817201.274
457,-58.105,40.039,-851.562,-108.887,90.332,1730817201.278
458,-251.465,39.062,-1000.000,-228.027,61.523,1730817201.283
459,-84.473,34.668,105.957,-14.160,9.277,1730817201.287
460,236.816,31.738,-811.035,256.348,8.789,1730817201.292
461,266.113,37.109,471.191,205.078,-32.715,1730817201.296
462,-20.996,41.016,-824.707,-88.867,-16.113,1730817201.301
463,-251.465,34.180,-1000.000,-241.211,-46.875,1730817201.305
464,-127.930,32.227,-15.137,-53.223,-29.785,1730817201.310
465,205.078,34.180,-870.117,235.840,40.039,1730817201.314
466,291.504,35.156,715.332,231.445,12.207,1730817201.319
467,36.133,38.574,-500.000,-40.039,5.371,1730817201.323
468,-218.262,39.062,-1000.000,-215.332,10.742,1730817201.311
469,-153.809,36.133,-251.465,-75.195,-17.578,1730817201.316
470,169.922,30.273,-969.238,214.844,22.949,1730817201.320
471,306.641,29.785,894.531,252.930,27.832,1730817201.325
472,70.801,36.133,-271.484,-7.812,-5.371,1730817201.329
473,-211.426,35.156,-1000.000,-223.145,-18.066,1730817201.333
474,-184.570,26.367,-299.805,-119.141,-47.852,1730817201.338
475,135.742,26.367,-992.676,192.383,9.766,1730817201.342
476,318.848,35.156,962.402,286.621,70.801,1730817201.347
477,120.117,41.016,-209.961,44.434,38.086,1730817201.351
478,-185.547,39.551,-1000.000,-203.613,63.965,1730817201.356
479,-205.078,33.691,-304.688,-136.230,89.844,1730817201.360
480,100.098,31.738,939.941,164.551,73.730,1730817201.347
481,311.523,36.133,-897.949,284.180,43.457,1730817201.352
482,150.879,38.574,109.375,72.266,66.895,1730817201.356
483,-152.832,36.621,-1000.000,-180.664,53.223,1730817201.361
484,-218.750,34.668,-630.859,-160.645,33.691,1730817201.365
485,58.594,33.203,644.043,124.512,-4.395,1730817201.369
486,304.199,33.691,-831.543,289.551,-25.391,1730817201.374
487,190.918,38.086,137.695,109.375,25.391,1730817201.378
488,-115.234,40.527,-1000.000,-164.062,10.742,1730817201.383
489,-230.469,41.016,-687.500,-181.152,2.441,1730817201.387
490,17.578,37.598,562.012,100.098,46.387,1730817201.391
491,296.387,29.297,-810.547,304.199,54.688,1730817201.396
492,227.539,31.250,279.297,158.691,102.051,1730817201.384
493,-79.102,41.016,-1000.000,-124.023,86.426,1730817201.388
494,-235.352,45.410,-874.023,-187.988,-17.090,1730817201.392
495,-28.320,36.621,323.730,60.547,-20.508,1730817201.397
496,276.855,30.762,-802.246,287.109,17.090,1730817201.401
497,258.789,35.156,325.684,175.781,10.742,1730817201.406
498,-48.828,39.551,-929.688,-112.793,-13.184,1730817201.410
499,-244.629,42.480,-1000.000,-216.797,53.711,1730817201.414
500,-78.613,33.691,77.637,3.906,78.125,1730817201.419
501,237.793,27.832,-844.238,270.020,9.277,1730817201.423
502,268.066,32.227,610.352,208.008,9.277,1730817201.427
503,-16.113,36.621,-681.641,-85.938,33.203,1730817201.432
504,-244.141,37.109,-1000.000,-222.168,20.996,1730817201.421
505,-124.023,33.203,29.297,-27.832,22.949,1730817201.425
506,207.520,28.320,-843.750,259.766,6.836,1730817201.429
507,291.504,37.109,632.324,240.234,-10.742,1730817201.434
508,27.344,43.457,-614.258,-51.758,32.715,1730817201.438
509,-230.469,36.133,-1000.000,-231.934,46.387,1730817201.442
510,-153.809,31.250,-148.438,-70.312,42.480,1730817201.447
511,178.711,27.832,-919.922,236.816,41.016,1730817201.451
512,308.594,28.809,861.328,260.254,-1.953,1730817201.455
513,69.824,31.250,-315.918,-14.648,-17.090,1730817201.460
514,-208.008,33.691,-1000.000,-215.820,5.859,1730817201.464
515,-183.594,32.715,-331.055,-99.609,36.133,1730817201.468
516,128.418,32.715,948.242,207.520,38.574,1730817201.458
517,302.734,35.645,-967.285,282.715,57.129,1730817201.462
518,99.609,34.668,-83.008,20.508,98.633,1730817201.466
519,-200.195,30.273,-1000.000,-217.285,60.547,1730817201.471
520,-217.285,29.785,-359.375,-135.254,51.758,1730817201.475
521,85.449,24.414,942.871,171.387,95.215,1730817201.479
522,299.805,19.531,-942.871,286.621,44.434,1730817201.484
523,133.789,27.344,-52.246,45.898,87.402,1730817201.488
524,-173.828,34.180,-1000.000,-213.867,28.320,1730817201.492
525,-237.305,30.273,-468.262,-176.270,14.648,1730817201.497
526,39.062,24.902,799.316,120.117,68.848,1730817201.501
527,289.551,26.855,-858.398,283.691,-4.395,1730817201.505
528,172.852,30.762,131.348,85.938,0.488,1730817201.495
529,-141.113,33.203,-1000.000,-195.801,41.504,1730817201.500
530,-252.441,34.180,-792.480,-200.684,32.715,1730817201.504
531,-0.977,30.762,435.059,93.262,67.871,1730817201.508
532,284.180,28.320,-798.828,288.574,46.875,1730817201.512
533,212.891,33.203,196.777,126.953,39.062,1730817201.517
534,-101.562,41.992,-1000.000,-159.668,24.902,1730817201.521
535,-257.324,47.363,-936.523,-221.680,15.625,1730817201.525
536,-41.504,37.598,205.566,45.898,1.465,1730817201.530
537,266.602,27.344,-793.457,289.551,-25.879,1730817201.534
538,243.164,34.180,345.215,171.875,-5.371,1730817201.538
539,-54.688,41.992,-943.848,-117.188,-9.766,1730817201.542
540,-238.281,42.969,-959.473,-209.473,-9.766,1730817201.533
541,-63.965,42.969,182.617,32.715,16.113,1730817201.537
542,253.418,40.039,-824.707,291.992,20.020,1730817201.542
543,273.438,37.109,533.203,206.543,10.254,1730817201.546
544,-12.695,40.527,-744.141,-87.402,-16.602,1730817201.550
545,-236.328,43.457,-1000.000,-218.750,-1.953,1730817201.554
546,-113.281,39.062,-63.965,-20.020,50.293,1730817201.559
547,220.703,35.645,-877.930,260.254,8.301,1730817201.563
548,305.176,42.480,695.801,235.352,-31.738,1730817201.567
549,35.645,46.875,-584.473,-54.199,-54.688,1730817201.571
550,-216.309,41.504,-1000.000,-219.238,-26.367,1730817201.576
551,-134.766,36.621,-71.289,-44.922,60.059,1730817201.580
552,189.453,33.203,-872.070,253.906,100.586,1730817201.572
553,309.082,38.574,733.398,261.719,55.176,1730817201.576
554,65.430,42.480,-470.703,-22.949,46.387,1730817201.581
555,-209.961,36.621,-1000.000,-219.727,77.637,1730817201.585
556,-176.270,32.227,-226.074,-86.426,40.039,1730817201.589
557,141.602,31.250,-956.543,213.379,65.918,1730817201.593
558,308.105,33.691,919.922,265.625,55.664,1730817201.597
559,106.934,36.621,-212.402,2.441,8.789,1730817201.602
560,-185.547,42.969,-1000.000,-216.797,6.348,1730817201.606
561,-203.613,43.945,-416.504,-118.652,-9.277,1730817201.610
562,98.633,32.227,887.695,184.082,4.883,1730817201.614
563,304.199,27.832,-932.617,280.762,22.949,1730817201.619
564,135.254,35.645,-39.551,44.434,7.324,1730817201.611
565,-168.945,36.621,-1000.000,-202.637,11.719,1730817201.616
566,-228.516,30.762,-525.391,-158.691,-17.090,1730817201.620
567,53.711,30.273,778.809,138.672,8.301,1730817201.624
568,297.852,30.273,-879.883,288.086,26.855,1730817201.628
569,172.852,34.668,15.137,84.473,39.062,1730817201.632
570,-137.695,38.086,-1000.000,-188.965,9.766,1730817201.637
571,-243.164,30.762,-648.438,-185.547,2.441,1730817201.641
572,9.766,24.902,591.797,103.516,30.273,1730817201.645
573,284.668,28.320,-822.266,290.039,48.340,1730817201.649
574,207.520,29.785,193.359,113.770,42.480,1730817201.653
575,-103.516,31.738,-1000.000,-168.945,-18.555,1730817201.658
576,-252.930,30.273,-869.629,-195.801,42.969,1730817201.652
577,-33.691,20.996,270.508,74.219,38.574,1730817201.656
578,269.043,21.973,-809.570,291.992,2.930,1730817201.660
579,236.816,31.738,396.973,160.645,88.867,1730817201.664
580,-62.988,39.551,-910.156,-129.395,38.574,1730817201.668
581,-247.559,37.598,-973.633,-209.961,26.855,1730817201.673
582,-74.707,33.203,167.969,30.273,56.641,1730817201.677
583,245.117,33.203,-798.340,284.180,46.387,1730817201.681
584,264.160,37.598,384.766,188.965,71.289,1730817201.685
585,-26.367,42.480,-923.340,-112.793,37.109,1730817201.689
586,-247.070,40.527,-1000.000,-233.398,52.734,1730817201.693
587,-116.211,35.156,91.309,-18.555,68.359,1730817201.698
588,210.449,30.762,-848.145,259.766,39.062,1730817201.691
589,278.809,32.715,651.367,210.938,52.246,1730817201.695
590,10.254,39.062,-598.145,-76.172,22.949,1730817201.700
591,-231.445,32.715,-1000.000,-226.562,17.090,1730817201.704
592,-142.578,27.832,-145.020,-50.293,20.020,1730817201.708
593,186.523,32.715,-891.113,244.141,5.371,1730817201.712
594,302.734,33.691,743.164,245.605,-34.180,1730817201.716
595,54.688,33.203,-482.910,-36.621,-39.062,1730817201.720
596,-217.285,34.668,-1000.000,-227.539,21.484,1730817201.725
597,-174.316,31.250,-195.312,-88.867,17.578,1730817201.729
598,149.414,30.762,-920.898,212.402,-23.926,1730817201.733
599,309.082,37.109,835.449,256.836,4.883,1730817201.737
600,96.191,41.504,-384.766,-2.441,37.109,1730817201.731
601,-196.777,37.598,-1000.000,-218.262,-22.461,1730817201.735
602,-208.496,35.645,-309.082,-122.559,-11.230,1730817201.739
603,97.168,33.203,972.168,180.176,25.391,1730817201.744
604,298.340,30.762,990.723,266.602,29.785,1730817201.748
605,119.629,35.156,-149.414,25.879,39.062,1730817201.752
606,-188.477,35.645,-1000.000,-218.750,-5.371,1730817201.756
607,-245.117,33.203,-651.855,-171.387,-32.715,1730817201.760
608,38.574,32.715,588.379,120.605,-23.926,1730817201.764
609,280.762,35.645,-842.773,256.836,-5.371,1730817201.769
610,142.578,39.551,91.309,46.387,30.273,1730817201.773
611,-179.199,41.016,-1000.000,-224.121,69.336,1730817201.777
612,-287.598,38.086,-609.863,-225.586,102.539,1730817201.771
613,-33.691,35.645,674.805,61.035,57.129,1730817201.775
614,243.164,35.645,-835.938,243.652,7.324,1730817201.780
615,158.691,39.062,135.254,64.453,27.344,1730817201.784
616,-157.715,44.922,-1000.000,-222.656,-7.812,1730817201.788
617,-309.570,45.410,-839.844,-262.207,-9.277,1730817201.792
618,-87.402,46.875,329.590,5.371,-3.418,1730817201.796
619,204.590,46.875,-802.734,206.543,-5.371,1730817201.800
620,160.156,50.781,357.910,60.059,57.617,1730817201.804
621,-150.391,57.129,-943.848,-227.539,7.812,1730817201.809
622,-340.332,55.664,-947.266,-309.082,30.273,1730817201.813
623,-163.086,50.293,216.309,-65.918,152.832,1730817201.817
624,152.344,49.316,-825.684,181.152,55.664,1730817201.812
625,166.992,50.293,527.344,84.473,20.020,1730817201.816
626,-116.699,49.805,-763.672,-203.613,113.770,1730817201.820
627,-327.148,48.828,-1000.000,-311.523,62.012,1730817201.824
628,-184.082,45.410,74.219,-87.402,58.594,1730817201.828
629,148.926,43.945,-811.035,191.895,22.949,1730817201.832
630,213.379,47.363,476.562,133.301,-11.719,1730817201.836
631,-58.594,50.781,-817.383,-159.668,51.270,1730817201.840
632,-301.758,48.828,-1000.000,-296.875,63.965,1730817201.845
633,-204.590,45.898,-38.574,-112.793,20.020,1730817201.849
634,128.906,42.480,-889.648,177.734,-43.457,1730817201.853
635,245.605,44.922,792.969,178.711,4.883,1730817201.857
636,0.488,46.387,-406.250,-97.656,-0.977,1730817201.853
637,-270.996,41.016,-1000.000,-272.461,14.648,1730817201.857
638,-221.191,40.527,-250.488,-128.906,56.641,1730817201.861
639,108.398,44.434,-967.773,168.457,1.465,1730817201.865
640,270.508,44.434,918.945,223.145,21.484,1730817201.869
641,57.129,42.480,-275.391,-35.645,14.648,1730817201.873
642,-229.004,42.480,-1000.000,-252.930,-44.922,1730817201.877
643,-225.586,41.504,-265.625,-145.508,19.043,1730817201.882
644,91.309,36.621,-978.516,169.434,52.246,1730817201.886
645,298.340,35.645,957.520,266.113,-33.691,1730817201.890
646,122.559,40.527,-204.102,21.973,24.902,1730817201.894
647,-176.758,39.551,-1000.000,-212.891,17.090,1730817201.898
648,-219.238,31.250,-416.504,-140.137,1.953,1730817201.894
649,82.031,27.832,856.445,177.734,27.832,1730817201.898
650,329.102,28.809,-890.137,317.383,-2.441,1730817201.902
651,200.195,33.691,73.730,103.516,55.176,1730817201.906
652,-108.398,36.133,-1000.000,-153.809,-6.348,1730817201.911
653,-208.008,32.715,-708.008,-141.113,2.441,1730817201.915
654,62.012,29.785,550.781,154.297,31.738,1730817201.919
655,340.332,26.367,-812.500,334.473,5.371,1730817201.923
656,246.582,29.785,187.500,152.344,14.648,1730817201.927
657,-63.965,36.133,-1000.000,-130.859,-3.418,1730817201.931
658,-198.242,29.785,-759.766,-158.203,16.113,1730817201.935
659,29.785,22.949,476.562,126.953,33.691,1730817201.939
660,326.172,22.949,-807.129,343.262,74.219,1730817201.936
661,279.297,23.438,261.719,190.918,78.613,1730817201.940
662,-37.598,24.902,-994.629,-98.633,26.855,1730817201.944
663,-220.703,22.461,-900.879,-164.551,2.441,1730817201.948
664,-29.785,16.602,248.535,85.449,53.223,1730817201.952
665,290.527,17.090,-808.105,328.125,90.820,1730817201.956
666,295.410,20.508,417.969,217.285,18.555,1730817201.960
667,-0.977,24.902,-867.188,-79.590,-26.367,1730817201.964
668,-212.402,25.391,-1000.000,-187.500,62.988,1730817201.968
669,-62.012,22.461,18.555,35.156,92.773,1730817201.973
670,271.973,20.996,-856.445,305.176,61.523,1730817201.977
671,327.637,23.438,642.090,248.047,51.758,1730817201.981
672,45.898,30.273,-638.672,-41.016,55.176,1730817201.977
673,-207.520,35.645,-1000.000,-191.406,37.109,1730817201.981
674,-104.492,28.320,-13.184,-3.906,56.152,1730817201.985
675,237.305,19.531,-856.934,294.434,35.156,1730817201.990
676,344.238,23.438,688.965,282.715,46.387,1730817201.994
677,80.566,26.367,-554.688,-12.695,33.203,1730817201.998
678,-198.730,25.391,-1000.000,-198.730,11.230,1730817202.002
679,-144.043,22.949,-208.984,-46.387,41.992,1730817202.006
680,187.012,19.531,-958.008,247.559,32.227,1730817202.010
681,337.891,23.926,920.898,282.227,42.480,1730817202.014
682,104.492,30.762,-232.422,10.742,70.801,1730817202.018
683,-192.871,30.762,-1000.000,-209.473,24.902,1730817202.022
684,-185.059,26.855,-397.949,-95.703,-23.438,1730817202.019
685,130.371,22.949,930.664,213.867,37.598,1730817202.023
686,324.219,23.926,-991.699,291.504,10.254,1730817202.027
687,136.230,32.715,-137.695,37.109,11.719,1730817202.031
688,-177.246,35.156,-1000.000,-204.590,25.391,1730817202.035
689,-218.262,28.320,-508.789,-133.301,-11.719,1730817202.039
690,82.031,25.391,812.012,168.945,-15.625,1730817202.044
691,309.082,26.855,-928.223,283.203,-46.387,1730817202.048
692,153.320,33.203,-86.426,46.387,-21.484,1730817202.052
693,-169.434,36.133,-1000.000,-223.145,-6.348,1730817202.056
694,-261.230,33.203,-515.625,-193.848,26.367,1730817202.060
695,12.207,30.273,741.699,100.586,72.266,1730817202.064
696,288.574,33.203,-840.820,269.531,-0.488,1730817202.061
697,187.988,40.039,199.219,78.613,43.457,1730817202.065
698,-149.414,44.434,-1000.000,-220.215,100.586,1730817202.069
699,-301.758,42.480,-829.590,-252.930,24.414,1730817202.073
700,-79.590,39.551,383.301,20.020,17.578,1730817202.077
701,199.707,41.504,-803.223,201.660,54.199,1730817202.081
702,131.348,43.457,253.906,28.320,75.195,1730817202.085
703,-191.406,43.945,-1000.000,-269.043,52.246,1730817202.089
704,-375.000,41.504,-896.973,-338.867,4.883,1730817202.093
705,-175.781,37.109,264.160,-79.102,-7.812,1730817202.098
706,146.484,37.109,-803.223,158.691,-58.594,1730817202.102
707,130.371,41.504,375.977,38.574,-45.898,1730817202.106
708,-183.105,44.922,-912.109,-256.348,6.348,1730817202.103
709,-388.184,46.387,-1000.000,-348.633,16.113,1730817202.107
710,-220.703,42.969,110.352,-110.840,1.953,1730817202.111
711,107.910,39.551,-830.566,151.367,23.438,1730817202.115
712,137.207,38.574,571.777,66.406,69.336,1730817202.119
713,-158.691,39.551,-688.965,-240.723,50.293,1730817202.123
714,-398.926,43.945,-1000.000,-373.535,24.414,1730817202.127
715,-284.668,39.062,-161.133,-184.082,-3.906,1730817202.131
716,55.176,35.645,-899.414,100.586,-20.508,1730817202.135
717,155.762,37.598,733.398,86.426,-12.207,1730817202.139
718,-95.215,43.457,-519.531,-205.566,24.414,1730817202.144
719,-355.957,44.434,-1000.000,-367.676,57.129,1730817202.148
720,-286.133,34.668,-127.441,-191.895,3.906,1730817202.146
721,51.758,37.109,-893.066,111.328,17.090,1730817202.150
722,191.895,43.457,767.090,128.906,71.777,1730817202.154
723,-42.480,43.457,-432.129,-151.367,29.785,1730817202.158
724,-333.984,41.016,-1000.000,-354.004,19.531,1730817202.162
725,-316.895,36.133,-293.457,-227.051,47.852,1730817202.166
726,10.742,33.203,994.141,81.055,105.469,1730817202.170
727,202.637,32.715,998.047,146.484,95.215,1730817202.174
728,11.719,35.645,-131.348,-109.375,19.043,1730817202.178
729,-291.504,35.156,-1000.000,-335.449,-4.395,1730817202.182
730,-327.148,30.762,-536.133,-251.953,4.883,1730817202.186
731,-15.137,28.809,739.746,61.523,33.203,1730817202.190
732,218.262,29.785,-868.652,183.105,70.801,1730817202.188
733,60.059,36.621,51.758,-47.852,55.176,1730817202.192
734,-255.859,39.062,-1000.000,-303.223,4.395,1730817202.196
735,-331.543,34.180,-512.207,-262.695,62.500,1730817202.200
736,-39.062,30.762,785.645,55.176,55.176,1730817202.204
737,222.656,30.273,-854.004,213.867,18.555,1730817202.208
738,107.422,36.621,95.703,5.859,92.773,1730817202.212
739,-200.684,41.016,-1000.000,-262.207,40.039,1730817202.216
740,-315.918,37.598,-722.168,-269.043,-13.184,1730817202.220
741,-65.430,32.715,515.625,21.973,10.742,1730817202.224
742,220.215,30.273,-805.664,217.285,40.527,1730817202.228
743,151.367,35.156,224.609,50.293,-5.859,1730817202.232
744,-159.180,41.992,-1000.000,-235.352,-36.133,1730817202.230
745,-321.777,40.039,-949.219,-283.203,-37.598,1730817202.234
746,-108.398,32.715,191.895,-10.254,22.461,1730817202.238
747,208.008,30.762,-798.340,217.773,45.898,1730817202.242
748,184.570,31.738,399.414,88.867,1.465,1730817202.246
749,-123.047,36.621,-900.879,-200.195,40.527,1730817202.250
750,-318.359,40.527,-991.211,-287.109,3.418,1730817202.254
751,-145.508,35.156,143.066,-48.340,20.508,1730817202.258
752,183.594,28.809,-801.758,208.984,52.734,1730817202.262
753,217.773,30.273,408.691,128.418,34.180,1730817202.266
754,-64.453,38.574,-889.160,-157.715,6.836,1730817202.271
755,-295.898,40.039,-1000.000,-280.273,-37.109,1730817202.275
756,-181.641,34.180,45.410,-66.406,-24.902,1730817202.274
757,165.039,35.645,-858.398,223.633,15.137,1730817202.278
758,261.719,36.621,684.570,189.941,-3.906,1730817202.282
759,-10.254,36.133,-541.016,-98.145,-12.207,1730817202.286
760,-272.949,35.645,-1000.000,-261.719,-25.879,1730817202.290
761,-192.383,37.109,-177.246,-87.402,-34.180,1730817202.294
762,148.926,39.062,-929.199,213.379,-14.160,1730817202.298
763,280.762,35.645,863.770,222.168,12.207,1730817202.302
764,26.367,34.180,-332.520,-62.988,27.832,1730817202.306
765,-264.160,38.086,-1000.000,-266.602,2.441,1730817202.310
766,-231.445,35.645,-242.188,-133.301,18.555,1730817202.314
767,92.773,27.832,-941.406,179.199,32.715,1730817202.318
768,272.461,31.250,886.230,233.398,28.320,1730817202.317
769,76.172,39.062,-309.082,-34.180,14.160,1730817202.321
770,-217.285,41.016,-1000.000,-254.395,-4.883,1730817202.325
771,-238.281,37.598,-380.859,-157.715,26.855,1730817202.329
772,66.406,31.250,916.504,147.461,11.230,1730817202.333
773,283.691,28.809,-956.055,256.348,11.719,1730817202.337
774,119.141,35.156,-83.496,23.438,41.016,1730817202.341
775,-194.824,40.039,-1000.000,-235.352,6.836,1730817202.345
776,-271.484,33.691,-584.473,-183.594,14.648,1730817202.349
777,16.113,26.367,691.406,123.047,59.082,1730817202.353
778,284.668,27.344,-835.938,268.066,56.152,1730817202.357
779,161.621,30.273,135.254,63.965,43.457,1730817202.361
780,-167.480,29.785,-1000.000,-215.820,-2.930,1730817202.361
781,-280.273,29.785,-639.160,-212.891,52.734,1730817202.365
782,-21.973,26.855,634.277,80.078,35.645,1730817202.369
783,269.043,29.297,-832.031,267.090,-2.441,1730817202.373
784,195.801,35.156,119.629,89.844,0.488,1730817202.377
785,-129.883,34.668,-1000.000,-197.266,-4.883,1730817202.381
786,-280.273,33.691,-809.570,-220.215,47.363,1730817202.385
787,-47.363,32.715,387.695,59.082,51.758,1730817202.389
788,263.184,29.297,-797.852,275.879,66.406,1730817202.393
789,234.375,32.715,377.930,141.113,48.828,1730817202.397
790,-66.895,36.621,-895.508,-144.531,-35.645,1730817202.401
791,-262.695,33.203,-1000.000,-224.121,-22.949,1730817202.405
792,-93.750,27.344,63.965,18.066,-12.695,1730817202.404
793,235.352,22.949,-815.430,271.973,26.855,1730817202.408
794,267.578,29.297,516.113,179.688,23.926,1730817202.412
795,-26.367,37.598,-786.133,-122.559,-59.570,1730817202.416
796,-260.254,39.062,-1000.000,-236.816,-26.855,1730817202.420
797,-132.324,34.668,18.066,-22.461,29.297,1730817202.424
798,201.660,28.809,-836.426,252.930,14.160,1730817202.428
799,277.344,28.809,571.289,208.496,-5.371,1730817202.432
800,4.395,34.668,-705.078,-86.426,50.781,1730817202.436
801,-249.023,37.598,-1000.000,-239.258,78.613,1730817202.440
802,-157.715,32.227,-66.406,-56.152,8.789,1730817202.444
803,188.477,31.250,-898.438,246.582,42.480,1730817202.448
804,316.406,33.203,836.426,240.234,85.938,1730817202.447
805,70.801,35.645,-342.773,-40.527,45.898,1730817202.451
806,-203.613,38.086,-1000.000,-213.379,35.156,1730817202.455
807,-158.203,36.621,-272.461,-66.406,6.836,1730817202.459
808,174.316,34.180,-963.867,244.141,-23.926,1730817202.463
809,341.309,33.203,883.301,289.062,-9.766,1730817202.467
810,129.883,38.086,-307.617,24.902,-7.324,1730817202.471
811,-171.875,41.992,-1000.000,-199.219,11.719,1730817202.475
812,-186.523,38.086,-406.738,-104.980,-30.273,1730817202.479
813,132.324,31.738,897.461,220.703,-44.434,1730817202.483
814,351.074,28.320,-958.984,318.848,28.320,1730817202.487
815,176.758,33.691,-86.426,62.012,52.246,1730817202.491
816,-148.926,35.156,-1000.000,-190.918,-5.859,1730817202.490
817,-215.332,30.273,-445.312,-134.277,2.930,1730817202.494
818,77.148,28.320,830.566,165.527,37.109,1730817202.498
819,317.383,29.297,-868.652,292.480,41.016,1730817202.502
820,178.711,30.762,100.098,71.289,70.801,1730817202.506
821,-144.531,33.691,-1000.000,-200.195,31.738,1730817202.510
822,-250.977,33.691,-779.297,-186.035,-0.977,1730817202.514
823,14.160,31.250,415.527,105.957,59.082,1730817202.518
824,303.223,32.227,-812.500,289.062,19.531,1730817202.522
825,224.609,36.621,207.520,115.723,-31.250,1730817202.526
826,-95.703,37.109,-1000.000,-170.898,23.926,1730817202.530
827,-250.000,34.180,-781.250,-202.148,57.617,1730817202.534
828,-18.066,32.227,451.172,82.520,43.945,1730817202.534
829,297.363,33.203,-805.176,297.852,29.785,1730817202.538
830,263.672,37.109,276.367,152.344,27.832,1730817202.542
831,-54.199,40.039,-982.910,-135.742,22.949,1730817202.546
832,-249.512,38.574,-914.551,-208.008,38.086,1730817202.550
833,-61.035,35.156,218.750,38.574,8.789,1730817202.554
834,271.973,36.133,-820.801,283.203,25.391,1730817202.558
835,289.062,41.504,484.375,179.688,41.016,1730817202.562
836,-11.230,41.016,-806.152,-111.328,-8.301,1730817202.566
837,-232.422,39.551,-1000.000,-209.961,15.137,1730817202.570
838,-90.332,37.598,28.809,15.625,18.066,1730817202.574
839,240.234,38.086,-846.680,277.832,19.531,1730817202.578
840,298.340,37.109,647.949,217.285,71.777,1730817202.578
841,9.277,32.227,-615.723,-75.195,64.453,1730817202.582
842,-251.953,32.227,-1000.000,-223.633,26.855,1730817202.586
843,-159.180,26.855,-63.477,-28.809,31.250,1730817202.590
844,182.617,22.461,-848.633,266.602,-34.668,1730817202.594
845,299.316,29.297,635.742,248.047,-9.766,1730817202.598
846,41.992,36.133,-635.742,-53.223,52.246,1730817202.602
847,-236.816,34.180,-1000.000,-233.887,15.137,1730817202.606
848,-186.523,35.156,-155.762,-72.754,29.785,1730817202.610
849,153.809,34.668,-929.199,229.492,7.324,1730817202.614
850,323.730,33.691,875.977,268.066,30.273,1730817202.618
851,103.516,38.574,-276.855,-4.883,50.781,1730817202.622
852,-189.941,41.992,-1000.000,-213.867,-8.301,1730817202.622
853,-192.871,37.598,-351.562,-100.586,-22.461,1730817202.626
854,122.559,30.762,952.637,197.754,24.414,1730817202.630
855,333.496,33.691,-965.820,283.691,49.805,1730817202.634
856,150.391,40.527,-96.191,31.250,31.250,1730817202.638
857,-171.387,42.969,-1000.000,-213.379,37.109,1730817202.642
858,-229.492,39.062,-506.836,-137.207,16.602,1730817202.646
859,62.500,35.645,807.129,168.457,14.160,1730817202.650
860,302.734,34.668,-908.203,287.598,53.223,1730817202.654
861,161.133,37.109,-49.316,58.105,49.316,1730817202.658
862,-159.180,37.109,-1000.000,-203.125,18.066,1730817202.662
863,-256.348,36.133,-584.961,-170.410,7.324,1730817202.665
864,17.578,34.668,670.898,128.906,7.812,1730817202.666
865,298.340,34.180,-821.289,297.363,42.480,1730817202.670
866,203.125,37.109,201.172,101.074,73.730,1730817202.674
867,-111.328,38.086,-1000.000,-174.316,-40.039,1730817202.678
868,-243.164,36.133,-822.266,-176.758,-39.062,1730817202.682
869,-4.395,30.762,381.348,114.258,84.961,1730817202.686
870,306.641,28.809,-798.828,318.848,87.402,1730817202.690
871,264.648,34.180,232.422,152.832,10.742,1730817202.694
872,-56.641,39.062,-1000.000,-146.973,7.812,1730817202.698
873,-240.723,36.621,-892.090,-205.078,15.137,1730817202.702
874,-46.875,29.785,262.695,60.059,-12.207,1730817202.705
875,271.484,28.809,-796.875,297.363,73.242,1730817202.709
876,266.602,34.668,345.215,169.922,89.355,1730817202.710
877,-41.992,38.574,-941.406,-125.977,7.812,1730817202.714
878,-260.254,34.668,-988.281,-222.168,-5.371,1730817202.718
879,-104.492,30.273,119.629,12.695,-1.953,1730817202.722
880,234.375,25.879,-828.613,282.715,-12.207,1730817202.726
881,282.227,25.391,543.945,206.543,20.020,1730817202.730
882,-8.789,32.227,-721.680,-89.844,57.129,1730817202.734
883,-256.348,31.250,-1000.000,-220.215,50.293,1730817202.738
884,-147.461,28.809,-125.000,-18.066,47.852,1730817202.742
885,203.613,27.344,-891.113,270.508,55.664,1730817202.746
886,316.406,26.367,712.402,255.859,68.359,1730817202.749
887,59.082,31.250,-521.484,-34.668,55.176,1730817202.753
888,-216.797,32.227,-1000.000,-210.938,24.902,1730817202.754
889,-160.645,26.855,-152.832,-37.598,19.531,1730817202.758
890,183.594,25.391,-911.133,262.207,11.230,1730817202.762
891,332.520,26.367,839.844,273.438,43.945,1730817202.766
892,92.285,29.297,-331.055,-9.277,49.316,1730817202.770
893,-212.891,32.227,-1000.000,-222.168,13.672,1730817202.774
894,-205.078,30.273,-302.246,-99.609,14.648,1730817202.778
895,128.418,26.855,988.770,210.449,19.043,1730817202.782
896,316.406,23.926,-992.188,271.484,41.992,1730817202.786
897,111.328,26.367,-109.375,13.184,2.930,1730817202.790
898,-201.660,29.785,-1000.000,-216.797,-43.945,1730817202.794
899,-235.352,27.832,-504.395,-130.859,-49.805,1730817202.798
900,76.660,26.367,796.387,179.688,-3.418,1730817202.799
901,307.617,26.367,-875.488,291.504,14.648,1730817202.802
902,145.996,27.832,51.758,54.199,28.320,1730817202.806
903,-184.082,31.738,-1000.000,-209.961,65.918,1730817202.810
904,-270.508,30.762,-631.836,-173.340,64.941,1730817202.814
905,15.625,27.344,654.785,132.812,57.617,1730817202.818
906,288.086,28.320,-841.797,290.527,72.754,1730817202.822
907,181.152,33.203,62.012,83.008,31.250,1730817202.826
908,-138.184,36.621,-1000.000,-187.012,-49.316,1730817202.830
909,-264.648,36.621,-700.684,-180.664,-38.086,1730817202.834
910,-6.348,33.203,525.879,117.676,26.855,1730817202.838
911,304.199,32.227,-807.129,312.012,-9.766,1730817202.842
912,248.535,34.668,298.340,145.508,0.488,1730817202.843
913,-72.266,35.645,-957.031,-141.602,49.316,1730817202.847
914,-255.859,31.738,-962.891,-199.707,56.641,1730817202.851
915,-50.293,27.832,160.645,65.430,90.820,1730817202.855
916,284.668,28.809,-803.223,304.199,27.832,1730817202.858
917,279.785,36.133,368.164,168.945,28.320,1730817202.862
918,-38.574,38.574,-929.688,-137.695,27.344,1730817202.866
919,-255.371,36.621,-982.422,-227.539,-33.203,1730817202.870
920,-94.727,31.250,143.066,14.648,23.438,1730817202.874
921,245.605,28.320,-802.246,281.250,40.039,1730817202.878
922,291.992,33.203,424.316,197.754,16.113,1730817202.882
923,-3.418,37.598,-875.488,-104.004,18.555,1730817202.886
924,-252.930,37.109,-1000.000,-233.398,-51.270,1730817202.887
925,-140.137,31.738,34.180,-15.625,34.668,1730817202.891
926,209.961,32.715,-860.352,270.996,109.863,1730817202.895
927,303.223,35.645,697.754,222.656,31.738,1730817202.899
928,35.156,39.551,-521.484,-69.824,-4.395,1730817202.903
929,-233.398,39.551,-1000.000,-221.191,-20.020,1730817202.907
930,-165.527,37.598,-259.766,-53.223,-1.953,1730817202.910
931,182.617,37.109,-967.773,239.258,30.762,1730817202.914
932,332.520,36.621,892.090,262.207,45.898,1730817202.918
933,86.914,42.480,-312.988,-23.438,42.969,1730817202.922
934,-216.309,44.922,-1000.000,-224.121,17.578,1730817202.926
935,-198.242,38.086,-233.398,-90.332,39.551,1730817202.930
936,131.348,35.156,-952.148,215.820,72.754,1730817202.931
937,322.754,35.645,913.574,272.949,65.430,1730817202.935
938,113.281,38.574,-240.234,-7.324,-9.766,1730817202.939
939,-198.242,40.039,-1000.000,-234.863,-31.738,1730817202.943
940,-217.773,37.109,-367.676,-125.000,41.992,1730817202.947
941,95.215,35.156,919.434,190.430,73.730,1730817202.951
942,322.266,35.156,-932.617,288.574,33.691,1730817202.955
943,154.297,38.086,-5.371,38.086,-0.977,1730817202.959
944,-166.992,39.551,-1000.000,-216.309,11.719,1730817202.963
945,-240.234,37.598,-600.098,-165.039,25.391,1730817202.966
946,55.664,34.668,683.105,149.902,50.293,1730817202.970
947,332.031,39.062,-831.055,301.758,107.910,1730817202.974
948,215.820,42.969,152.832,91.797,82.031,1730817202.976
949,-117.676,39.062,-1000.000,-180.176,-19.531,1730817202.980
950,-251.465,33.203,-666.992,-173.828,-4.883,1730817202.983
951,1.953,29.785,610.352,120.117,53.711,1730817202.987
952,301.270,27.832,-823.730,303.711,3.418,1730817202.991
953,232.910,33.691,149.414,124.512,17.578,1730817202.995
954,-92.773,38.086,-1000.000,-168.457,-5.859,1730817202.999
955,-257.324,36.621,-836.914,-205.566,-64.941,1730817203.003
956,-36.621,36.133,338.867,80.078,0.000,1730817203.007
957,282.715,34.180,-796.875,302.246,4.395,1730817203.011
958,260.742,36.621,337.891,163.086,-19.043,1730817203.015
959,-46.387,40.039,-917.969,-124.512,18.066,1730817203.019
960,-240.723,41.504,-1000.000,-203.125,24.902,1730817203.020
961,-70.801,39.062,30.762,42.969,-1.953,1730817203.024
962,262.695,34.180,-828.125,296.875,-1.953,1730817203.028
963,289.062,35.645,548.828,198.730,32.715,1730817203.032
964,-12.695,40.039,-750.000,-109.375,43.945,1730817203.036
965,-244.141,40.527,-1000.000,-234.375,98.145,1730817203.040
966,-116.211,37.109,19.043,-11.230,99.121,1730817203.044
967,219.727,31.738,-830.078,269.531,7.812,1730817203.048
968,297.363,28.809,538.086,219.238,14.648,1730817203.052
969,27.832,31.738,-748.047,-77.148,41.016,1730817203.056
970,-231.934,36.621,-1000.000,-232.422,-7.324,1730817203.060
971,-158.691,35.156,-47.852,-47.363,37.598,1730817203.064
972,172.852,30.762,-894.531,235.840,87.402,1730817203.065
973,294.434,29.785,797.852,228.027,38.086,1730817203.069
974,44.434,29.297,-361.328,-51.270,40.039,1730817203.073
975,-244.629,31.250,-1000.000,-243.652,21.484,1730817203.077
976,-210.938,33.203,-356.445,-103.516,-8.789,1730817203.081
977,123.535,32.227,980.957,204.102,23.438,1730817203.085
978,299.316,29.297,927.734,247.559,47.852,1730817203.089
979,92.285,33.691,-274.902,-21.973,21.484,1730817203.093
980,-207.520,37.598,-1000.000,-242.676,14.648,1730817203.097
981,-224.609,33.203,-299.316,-136.230,40.527,1730817203.101
982,90.820,25.879,991.211,179.199,85.938,1730817203.105
983,321.289,30.762,-997.559,271.484,98.145,1730817203.109
984,159.668,36.133,-143.555,26.855,48.340,1730817203.110
985,-165.527,32.227,-1000.000,-212.402,-40.039,1730817203.114
986,-240.723,30.273,-479.004,-139.648,-62.988,1730817203.118
987,52.246,28.809,791.504,170.898,-22.461,1730817203.122
988,318.848,29.785,-872.559,292.969,41.504,1730817203.126
989,205.078,34.668,37.598,67.383,6.348,1730817203.130
990,-119.629,34.668,-1000.000,-185.547,-19.043,1730817203.134
991,-236.328,32.227,-780.273,-156.250,-13.184,1730817203.138
992,30.273,30.273,393.555,145.508,-14.648,1730817203.142
993,322.266,25.391,-799.316,324.707,10.742,1730817203.146
994,244.141,30.273,288.086,136.230,47.852,1730817203.150
995,-74.219,38.086,-1000.000,-139.160,116.699,1730817203.154
996,-245.117,29.297,-772.461,-167.480,77.148,1730817203.155
997,-23.438,20.508,475.586,111.328,23.926,1730817203.159
998,301.758,27.344,-802.246,331.543,64.941,1730817203.163
999,269.043,33.203,236.816,168.945,94.238,1730817203.167
1000,-42.969,36.621,-1000.000,-127.930,28.809,1730817203.171
1001,-237.793,35.645,-949.707,-197.754,-42.969,1730817203.175
1002,-58.105,28.809,172.363,53.711,10.742,1730817203.179
1003,273.926,29.785,-820.312,300.293,45.410,1730817203.182
1004,288.574,35.645,508.789,176.758,63.965,1730817203.186
1005,-11.230,40.527,-764.648,-120.117,29.297,1730817203.190
1006,-242.188,39.062,-1000.000,-217.285,-14.160,1730817203.194
1007,-108.887,34.180,-15.137,3.906,34.180,1730817203.198
1008,237.305,33.203,-846.191,273.926,44.922,1730817203.200
1009,312.988,36.133,631.348,218.750,42.480,1730817203.204
1010,41.992,42.969,-645.996,-77.148,-14.648,1730817203.207
1011,-212.402,42.969,-1000.000,-219.238,-80.566,1730817203.211
1012,-120.117,37.598,-67.871,-21.484,-10.742,1730817203.215
1013,229.980,36.621,-857.422,272.461,76.660,1730817203.219
1014,359.863,40.527,670.410,249.023,63.477,1730817203.223
1015,97.168,45.410,-602.539,-41.016,79.590,1730817203.227
1016,-197.266,43.945,-1000.000,-209.961,85.449,1730817203.231
1017,-157.227,37.109,-141.602,-48.340,90.820,1730817203.235
1018,182.617,34.180,-925.293,257.812,64.453,1730817203.239
1019,354.004,36.621,887.695,284.668,28.809,1730817203.243
1020,125.000,40.527,-270.020,10.742,18.066,1730817203.244
1021,-177.246,43.945,-1000.000,-192.871,12.695,1730817203.248
1022,-186.035,41.504,-382.324,-84.473,41.504,1730817203.252
1023,140.625,39.551,941.895,230.469,41.504,1730817203.256
1024,357.910,40.039,-979.492,309.570,3.418,1730817203.260
1025,166.016,44.434,-134.277,48.340,-60.059,1730817203.264
1026,-159.668,48.828,-1000.000,-201.172,-46.387,1730817203.268
1027,-222.656,42.480,-448.730,-142.578,-9.277,1730817203.272
1028,82.031,38.086,848.633,176.270,-48.340,1730817203.276
1029,334.473,41.992,-912.109,297.363,-17.578,1730817203.280
1030,186.035,42.969,-7.324,62.012,41.504,1730817203.284
1031,-146.484,39.062,-1000.000,-199.707,1.465,1730817203.288
1032,-251.465,38.086,-620.605,-175.781,-30.273,1730817203.290
1033,16.113,40.527,653.809,123.047,4.883,1730817203.293
1034,302.246,42.969,-839.355,277.832,56.641,1730817203.297
1035,206.055,50.293,91.797,78.613,39.062,1730817203.301
1036,-129.883,54.688,-1000.000,-199.219,-38.574,1730817203.305
1037,-276.855,48.828,-864.258,-215.332,11.230,1730817203.309
1038,-45.410,41.504,262.695,63.477,54.199,1730817203.313
1039,257.812,39.551,-801.758,261.230,-15.137,1730817203.317
1040,210.449,41.016,361.328,87.891,45.410,1730817203.321
1041,-110.840,39.062,-961.914,-207.031,22.461,1730817203.325
1042,-298.828,36.621,-901.855,-256.836,4.395,1730817203.329
1043,-105.957,33.203,281.738,2.930,23.438,1730817203.333
1044,228.516,31.250,-811.035,252.441,-5.859,1730817203.335
1045,240.723,35.156,406.250,140.137,3.906,1730817203.339
1046,-60.547,37.109,-879.395,-150.879,0.000,1730817203.343
1047,-276.367,36.621,-1000.000,-244.141,-62.012,1730817203.346
1048,-124.512,35.156,91.309,-4.395,-15.625,1730817203.350
1049,222.168,34.180,-826.172,270.508,19.531,1730817203.354
1050,289.551,36.621,539.062,203.125,-3.906,1730817203.358
1051,6.348,41.504,-711.914,-92.285,22.949,1730817203.362
1052,-242.188,41.504,-1000.000,-221.680,-36.133,1730817203.366
1053,-135.742,36.621,-173.340,-25.391,-15.137,1730817203.370
1054,211.426,33.203,-907.227,262.695,80.566,1730817203.374
1055,327.148,32.715,794.434,250.000,83.984,1730817203.378
1056,63.477,37.109,-448.242,-44.922,33.203,1730817203.380
1057,-227.051,38.574,-1000.000,-228.516,32.227,1730817203.384
1058,-178.223,35.156,-124.512,-62.500,72.754,1730817203.388
1059,163.574,36.133,-886.719,240.234,45.410,1730817203.392
1060,314.453,37.109,771.973,258.301,-16.113,1730817203.396
1061,80.078,38.086,-446.777,-16.602,-35.645,1730817203.400
1062,-213.379,41.016,-1000.000,-217.773,-18.555,1730817203.404
1063,-207.520,41.016,-278.320,-96.191,-31.250,1730817203.408
1064,112.305,39.062,982.910,203.613,9.766,1730817203.412
1065,306.152,38.574,-980.957,267.090,68.359,1730817203.416
1066,110.840,40.039,-77.637,7.324,71.289,1730817203.420
1067,-199.707,42.480,-1000.000,-225.098,50.293,1730817203.424
1068,-245.605,44.434,-515.137,-151.367,51.758,1730817203.425
1069,63.477,42.969,798.340,153.320,68.359,1730817203.429
1070,313.965,41.992,-882.324,276.367,-2.441,1730817203.433
1071,160.156,41.992,29.297,45.410,-31.738,1730817203.437
1072,-164.062,41.992,-1000.000,-213.867,-87.402,1730817203.441
1073,-246.094,40.039,-564.941,-174.316,-5.859,1730817203.445
1074,38.574,37.109,736.328,138.184,104.980,1730817203.449
1075,318.359,36.133,-868.164,302.246,36.133,1730817203.453
1076,218.750,38.574,47.363,104.980,-1.953,1730817203.457
1077,-107.910,39.551,-1000.000,-166.016,33.691,1730817203.461
1078,-242.188,40.039,-708.496,-179.199,41.504,1730817203.465
1079,2.441,37.598,500.977,104.004,23.438,1730817203.469
1080,306.641,35.156,-812.012,298.828,48.828,1730817203.471
1081,247.070,33.691,325.195,127.441,62.012,1730817203.475
1082,-73.730,32.227,-955.566,-147.949,51.270,1730817203.478
1083,-244.141,33.203,-946.289,-197.266,17.090,1730817203.482
1084,-47.363,32.227,228.027,57.617,0.488,1730817203.486
1085,277.832,29.785,-805.176,290.039,20.508,1730817203.490
1086,272.949,28.320,386.719,167.480,35.645,1730817203.494
1087,-51.270,31.250,-902.832,-138.184,1.465,1730817203.498
1088,-272.461,34.180,-970.215,-242.188,-7.812,1730817203.502
1089,-110.352,30.273,176.758,7.324,9.277,1730817203.506
1090,228.027,29.785,-824.707,272.461,-32.715,1730817203.510
1091,268.066,33.203,512.207,183.594,1.953,1730817203.514
1092,-22.949,37.598,-762.207,-115.723,45.898,1730817203.516
1093,-270.020,39.551,-1000.000,-250.488,32.227,1730817203.520
1094,-158.691,35.156,-5.371,-35.156,39.062,1730817203.524
1095,193.359,27.344,-874.023,254.883,34.180,1730817203.528
1096,292.969,29.785,740.234,216.797,52.246,1730817203.531
1097,24.414,36.133,-494.629,-75.684,102.539,1730817203.535
1098,-243.652,33.691,-1000.000,-233.887,83.496,1730817203.539
1099,-175.781,33.691,-191.895,-61.035,50.293,1730817203.543
1100,167.969,30.273,-940.918,231.934,9.277,1730817203.547
1101,321.289,29.297,905.762,248.535,11.719,1730817203.551
1102,85.449,35.156,-283.203,-38.086,42.480,1730817203.555
1103,-207.031,38.574,-1000.000,-237.793,46.875,1730817203.559
1104,-190.430,35.645,-203.613,-93.750,60.547,1730817203.561
1105,138.672,30.762,-938.965,220.215,79.590,1730817203.565
1106,329.102,31.250,888.672,277.832,61.035,1730817203.569
1107,126.953,33.203,-252.930,10.742,-11.719,1730817203.573
1108,-184.082,35.645,-1000.000,-214.844,-14.160,1730817203.577
1109,-222.168,36.133,-443.848,-118.652,19.531,1730817203.580
1110,89.844,30.762,861.328,191.895,22.949,1730817203.584
1111,324.219,28.320,-921.387,291.992,-18.066,1730817203.588
1112,162.598,29.297,-17.578,48.340,-21.484,1730817203.592
1113,-165.527,26.367,-1000.000,-209.473,10.742,1730817203.596
1114,-252.441,25.879,-621.582,-158.203,-29.785,1730817203.600
1115,38.574,24.902,655.762,154.297,-33.691,1730817203.604
1116,309.082,27.344,-823.242,292.480,92.773,1730817203.606
1117,190.918,32.715,159.180,74.219,93.262,1730817203.610
1118,-134.766,33.691,-1000.000,-181.641,6.348,1730817203.614
1119,-254.883,33.691,-720.703,-177.734,-31.250,1730817203.618
1120,0.488,30.273,537.598,105.957,-32.227,1730817203.622
1121,301.758,27.344,-814.941,306.152,-22.949,1730817203.626
1122,237.305,31.738,127.930,132.812,-24.902,1730817203.630
1123,-81.543,34.668,-1000.000,-156.250,-24.902,1730817203.633
1124,-246.582,30.762,-810.059,-185.059,-7.324,1730817203.637
1125,-29.785,28.809,354.004,92.773,-7.324,1730817203.641
1126,294.434,29.785,-808.105,312.988,14.160,1730817203.645
1127,277.344,33.203,386.230,171.387,13.672,1730817203.649
1128,-28.809,36.621,-899.902,-116.699,-40.039,1730817203.652
1129,-241.211,35.645,-1000.000,-199.219,-12.695,1730817203.655
1130,-87.891,32.715,120.117,32.715,47.363,1730817203.659
1131,250.000,32.227,-821.289,291.992,26.855,1730817203.663
1132,291.992,38.086,538.574,200.195,17.090,1730817203.667
1133,0.977,42.969,-768.555,-100.586,0.488,1730817203.671
1134,-243.164,40.527,-1000.000,-226.074,13.672,1730817203.675
1135,-130.859,34.668,48.340,-11.230,38.574,1730817203.679
1136,211.426,31.250,-827.637,272.461,65.918,1730817203.683
1137,305.176,34.668,553.223,227.051,72.266,1730817203.687
1138,36.621,42.969,-708.984,-61.523,55.664,1730817203.691
1139,-223.633,42.969,-1000.000,-208.496,33.691,1730817203.695
1140,-149.902,38.574,-93.750,-25.879,-18.066,1730817203.697
1141,185.547,35.156,-902.832,265.137,-17.090,1730817203.701
1142,328.613,37.109,817.383,264.648,19.043,1730817203.705
1143,92.773,43.945,-352.051,-22.461,33.691,1730817203.709
1144,-198.242,44.922,-1000.000,-208.496,1.953,1730817203.713
1145,-180.176,38.086,-326.660,-64.941,-34.180,1730817203.717
1146,149.902,30.273,989.746,237.793,16.602,1730817203.721
1147,340.332,32.227,956.543,286.621,15.625,1730817203.724
1148,145.508,40.527,-203.125,21.973,-29.297,1730817203.728
1149,-160.645,40.039,-1000.000,-204.590,15.137,1730817203.732
1150,-196.289,34.180,-364.746,-103.027,4.883,1730817203.736
1151,111.816,30.762,948.242,211.426,-13.672,1730817203.740
1152,333.984,32.715,999.023,294.922,53.223,1730817203.743
1153,159.668,40.039,-133.301,38.086,45.410,1730817203.747
1154,-161.621,40.039,-1000.000,-207.520,11.230,1730817203.751
1155,-237.793,38.086,-515.625,-145.508,-8.301,1730817203.755
1156,36.621,32.715,772.949,141.602,8.301,1730817203.759
1157,292.969,27.832,-873.047,269.531,7.812,1730817203.763
1158,173.340,33.691,34.668,66.406,18.555,1730817203.767
1159,-149.902,38.574,-1000.000,-193.359,-2.441,1730817203.770
1160,-263.672,37.109,-800.781,-183.105,-40.039,1730817203.774
1161,-3.418,34.668,369.629,103.516,21.973,1730817203.778
1162,291.992,33.203,-804.688,287.109,68.359,1730817203.782
1163,218.750,35.156,210.449,111.816,20.996,1730817203.786
1164,-97.656,38.574,-1000.000,-157.715,4.883,1730817203.789
1165,-250.000,37.598,-783.691,-176.270,66.406,1730817203.793
1166,-30.273,30.762,437.988,95.215,12.207,1730817203.797
1167,278.320,29.297,-810.059,299.316,8.789,1730817203.801
1168,255.371,33.203,324.707,155.273,144.043,1730817203.805
1169,-51.270,35.156,-940.918,-140.137,157.715,1730817203.809
1170,-250.488,36.133,-959.473,-212.891,78.613,1730817203.812
1171,-72.754,34.668,179.688,45.410,41.992,1730817203.816
1172,256.348,33.203,-827.148,284.180,16.113,1730817203.820
1173,280.273,35.156,516.602,174.805,34.668,1730817203.824
1174,-15.137,39.062,-744.629,-116.211,68.848,1730817203.828
1175,-253.418,38.574,-1000.000,-227.539,42.969,1730817203.832
1176,-124.023,35.645,-41.992,-9.766,71.289,1730817203.834
1177,217.285,33.203,-857.422,255.371,85.938,1730817203.838
1178,297.363,31.738,658.203,198.730,38.086,1730817203.842
1179,26.367,37.109,-613.770,-81.543,1.953,1730817203.846
1180,-232.910,38.574,-1000.000,-228.516,0.977,1730817203.850
1181,-148.926,35.156,-96.191,-41.504,8.789,1730817203.854
1182,189.453,33.691,-865.723,257.324,0.000,1730817203.858
1183,318.848,35.645,657.227,248.535,-0.488,1730817203.862
1184,74.219,38.574,-583.984,-33.691,-34.180,1730817203.866
1185,-207.520,38.086,-1000.000,-208.496,17.578,1730817203.870
1186,-177.246,34.668,-183.594,-58.594,27.832,1730817203.874
1187,151.855,34.668,-942.871,230.957,-8.789,1730817203.877
1188,322.266,34.180,915.039,259.277,41.992,1730817203.881
1189,102.051,32.227,-222.168,-2.441,56.641,1730817203.885
1190,-195.801,38.086,-1000.000,-209.961,46.387,1730817203.889
1191,-203.125,40.039,-352.539,-95.703,41.504,1730817203.893
1192,114.746,36.133,956.055,192.871,25.391,1730817203.897
1193,328.125,33.203,-979.004,258.301,24.902,1730817203.901
1194,149.414,35.645,-103.027,31.250,70.801,1730817203.905
1195,-165.039,38.086,-1000.000,-203.613,26.855,1730817203.909
1196,-234.863,35.156,-423.828,-140.137,-0.488,1730817203.912
1197,48.340,30.762,891.602,155.762,57.617,1730817203.916
1198,294.434,30.762,-933.105,279.785,40.039,1730817203.920
1199,164.062,36.133,-57.129,55.664,37.598,1730817203.924
1200,-145.508,40.039,-1000.000,-207.031,11.719,1730817203.928
1201,-248.047,36.621,-561.035,-169.922,54.199,1730817203.932
1202,16.113,31.738,693.359,124.512,63.477,1730817203.936
1203,297.363,28.809,-833.984,286.133,9.277,1730817203.940
1204,214.844,32.227,187.012,104.004,23.926,1730817203.943
1205,-97.656,41.016,-1000.000,-167.969,12.695,1730817203.947
1206,-245.605,40.527,-854.980,-182.129,59.082,1730817203.951
1207,-18.555,33.691,300.781,100.098,83.496,1730817203.955
1208,293.457,31.250,-805.176,306.152,-5.371,1730817203.959
1209,252.930,31.738,347.168,155.273,-21.973,1730817203.963
1210,-59.082,37.109,-959.961,-127.930,-20.020,1730817203.967
1211,-239.258,39.551,-925.293,-183.594,-77.148,1730817203.971
1212,-45.898,37.598,244.629,71.777,-34.180,1730817203.973
1213,276.367,35.156,-797.363,299.316,74.707,1730817203.977
1214,282.715,39.551,336.426,180.176,52.246,1730817203.981
1215,-17.090,44.434,-938.477,-109.375,-27.832,1730817203.985
1216,-243.164,41.016,-1000.000,-204.590,-32.715,1730817203.989
1217,-99.609,36.133,75.684,16.602,24.902,1730817203.993
1218,237.793,38.086,-847.168,271.484,16.113,1730817203.997
1219,302.246,41.504,619.629,206.543,18.555,1730817204.001
1220,19.043,41.992,-623.047,-82.031,81.055,1730817204.005
1221,-236.816,41.504,-1000.000,-216.309,75.684,1730817204.008
1222,-142.090,36.133,-88.867,-21.973,87.402,1730817204.012
1223,194.824,31.250,-887.207,254.883,72.754,1730817204.016
1224,311.523,34.180,784.180,232.910,54.688,1730817204.019
1225,59.570,40.039,-425.781,-55.176,56.152,1730817204.023
1226,-221.680,42.480,-1000.000,-225.098,46.387,1730817204.027
1227,-174.805,39.551,-160.156,-63.477,49.805,1730817204.031
1228,160.645,38.574,-894.531,235.352,10.254,1730817204.035
1229,318.848,38.086,758.789,260.742,10.254,1730817204.039
1230,95.703,41.992,-499.023,-19.531,-1.953,1730817204.042
1231,-200.195,46.387,-1000.000,-229.492,6.836,1730817204.046
1232,-199.707,44.434,-218.262,-113.281,30.762,1730817204.050
1233,121.094,38.574,-990.234,200.195,23.438,1730817204.054
1234,323.730,35.156,-987.793,276.367,30.762,1730817204.058
1235,135.742,37.109,-72.266,23.438,1.465,1730817204.062
1236,-172.852,39.551,-1000.000,-204.590,-28.320,1730817204.065
1237,-216.309,36.621,-493.164,-129.883,-58.594,1730817204.069
1238,85.449,34.668,825.195,171.875,11.230,1730817204.073
1239,329.590,37.598,-907.227,287.598,34.180,1730817204.077
1240,184.570,42.480,0.977,62.500,-47.852,1730817204.080
1241,-140.137,43.945,-1000.000,-188.965,-16.602,1730817204.084
1242,-235.352,38.574,-606.934,-155.762,66.895,1730817204.088
1243,40.527,34.180,680.664,144.043,53.223,1730817204.092
1244,317.871,32.715,-848.633,298.340,39.551,1730817204.096
1245,219.238,34.180,58.105,98.145,48.340,1730817204.100
1246,-101.562,35.156,-1000.000,-180.664,7.812,1730817204.104
1247,-238.770,31.250,-658.203,-185.547,53.223,1730817204.108
1248,2.930,29.785,575.195,108.887,35.156,1730817204.111
1249,309.082,32.227,-814.453,300.293,-16.602,1730817204.114
1250,258.301,34.180,296.875,139.648,39.551,1730817204.118
1251,-54.688,34.668,-962.891,-137.207,4.883,1730817204.122
1252,-229.004,36.621,-958.496,-185.547,-33.203,1730817204.126
1253,-32.715,34.180,190.918,74.219,20.508,1730817204.130
1254,284.668,32.715,-807.617,295.410,23.926,1730817204.134
1255,279.297,36.133,437.012,161.133,18.555,1730817204.138
1256,-28.809,41.016,-871.094,-137.207,30.273,1730817204.142
1257,-246.094,43.457,-985.840,-222.656,22.461,1730817204.146
1258,-90.820,37.109,170.410,22.461,51.270,1730817204.150
1259,248.047,31.738,-829.102,287.598,-11.719,1730817204.153
1260,296.387,39.062,520.996,200.195,-27.344,1730817204.157
1261,0.977,44.922,-749.023,-107.422,36.133,1730817204.161
1262,-250.977,39.551,-1000.000,-226.562,-11.719,1730817204.164
1263,-145.508,30.273,25.879,-13.672,20.020,1730817204.168
1264,195.312,28.809,-845.703,253.418,50.781,1730817204.172
1265,289.551,33.691,637.207,206.543,-1.465,1730817204.176
1266,23.438,36.133,-593.750,-83.008,23.926,1730817204.180
1267,-240.234,36.133,-1000.000,-235.840,35.156,1730817204.184
1268,-174.316,35.156,-273.438,-65.430,32.227,1730817204.188
1269,159.180,31.250,-982.910,219.727,17.578,1730817204.192
1270,308.594,31.250,899.414,237.305,23.438,1730817204.196
1271,82.520,36.133,-305.176,-31.250,61.523,1730817204.200
1272,-211.914,32.227,-1000.000,-225.098,52.734,1730817204.203
1273,-200.195,26.367,-215.332,-88.867,48.340,1730817204.207
1274,130.859,24.902,-948.242,210.449,26.367,1730817204.211
1275,333.008,26.855,914.062,269.043,7.324,1730817204.215
1276,141.602,28.320,-215.820,23.438,10.742,1730817204.219
1277,-171.387,31.250,-1000.000,-192.383,-21.973,1730817204.223
1278,-202.148,33.203,-442.871,-98.145,-7.324,1730817204.226
1279,107.910,32.227,849.609,202.148,-23.926,1730817204.230
1280,333.984,31.250,-892.578,297.363,15.625,1730817204.234
1281,176.758,33.691,29.297,59.082,62.012,1730817204.238
1282,-137.695,37.109,-1000.000,-179.199,25.879,1730817204.242
1283,-224.609,36.133,-708.008,-145.020,0.000,1730817204.246
1284,58.105,34.180,509.766,145.020,6.348,1730817204.250
1285,327.148,32.715,-826.172,305.176,11.719,1730817204.254
1286,209.473,35.645,164.551,95.215,26.367,1730817204.258
1287,-111.816,41.016,-1000.000,-168.457,15.137,1730817204.262
1288,-238.281,39.062,-651.855,-153.809,12.695,1730817204.266
1289,8.789,34.668,609.863,125.000,74.219,1730817204.269
1290,299.805,33.691,-828.125,302.734,81.543,1730817204.273
1291,231.934,35.645,191.406,126.465,65.918,1730817204.277
1292,-88.867,36.621,-1000.000,-154.785,10.254,1730817204.281
1293,-259.766,33.203,-810.547,-189.453,-23.926,1730817204.285
1294,-44.434,29.297,388.672,77.637,-3.418,1730817204.289
1295,276.367,29.297,-807.129,293.457,15.137,1730817204.293
1296,257.812,34.668,372.070,150.391,10.742,1730817204.296
1297,-56.152,38.086,-880.371,-137.695,17.090,1730817204.300
1298,-261.230,37.598,-1000.000,-212.891,49.316,1730817204.304
1299,-88.379,33.691,-0.488,24.414,20.020,1730817204.308
1300,238.770,28.320,-820.801,268.555,28.320,1730817204.312
1301,266.113,30.762,496.094,173.828,66.406,1730817204.315
1302,-29.297,39.062,-812.500,-123.047,24.902,1730817204.319
1303,-261.230,42.969,-1000.000,-235.352,-11.719,1730817204.323
1304,-129.883,38.086,54.688,-18.555,-0.977,1730817204.327
1305,213.379,33.691,-835.938,253.418,0.977,1730817204.331
1306,297.852,35.156,580.078,205.566,39.551,1730817204.335
1307,30.273,38.574,-669.434,-75.195,4.395,1730817204.339
1308,-229.492,37.109,-1000.000,-217.773,-26.367,1730817204.343
1309,-145.020,34.668,-88.867,-31.250,0.977,1730817204.346
1310,205.566,38.574,-899.902,244.629,45.410,1730817204.350
1311,340.332,40.039,827.637,235.840,82.031,1730817204.354
1312,96.191,43.457,-348.633,-11.230,52.246,1730817204.358
1313,-191.406,44.434,-1000.000,-195.801,17.090,1730817204.362
1314,-164.062,41.504,-375.000,-61.523,31.250,1730817204.366
1315,164.062,37.598,961.426,241.699,49.316,1730817204.370
1316,334.961,35.645,909.180,281.738,1.953,1730817204.374
1317,120.117,40.039,-300.293,17.090,-45.898,1730817204.378
1318,-191.406,40.039,-1000.000,-200.195,-58.105,1730817204.382
1319,-209.473,35.645,-335.938,-101.562,-42.480,1730817204.386
1320,111.328,32.227,979.004,202.637,-26.855,1730817204.389
1321,332.520,34.180,970.215,287.598,8.789,1730817204.393
1322,159.180,40.039,-208.984,39.062,-15.137,1730817204.397
1323,-165.039,41.504,-1000.000,-201.660,-66.895,1730817204.401
1324,-232.910,36.621,-426.270,-139.160,48.340,1730817204.405
1325,61.035,33.203,837.891,157.227,80.566,1730817204.408
1326,319.824,36.133,-876.953,271.484,-41.992,1730817204.412
1327,188.965,38.574,98.145,65.430,-6.836,1730817204.416
1328,-134.766,39.551,-1000.000,-177.246,32.227,1730817204.420
1329,-250.488,41.016,-776.855,-166.992,48.340,1730817204.424
1330,9.766,38.086,416.504,109.863,91.309,1730817204.428
1331,309.082,36.621,-815.918,281.250,57.129,1730817204.432
1332,226.562,41.504,214.844,99.609,50.781,1730817204.436
1333,-105.957,45.898,-1000.000,-184.082,55.664,1730817204.439
1334,-263.672,40.527,-786.133,-208.008,16.113,1730817204.443
1335,-39.551,32.715,438.477,66.895,30.273,1730817204.447
1336,270.020,31.250,-798.828,274.414,67.871,1730817204.451
1337,234.375,37.109,234.375,126.953,95.703,1730817204.455
1338,-84.473,41.504,-1000.000,-161.133,23.438,1730817204.459
1339,-280.273,40.039,-896.484,-219.727,-32.227,1730817204.463
1340,-85.938,38.086,254.883,37.109,30.273,1730817204.467
1341,252.930,34.668,-826.172,275.391,40.527,1730817204.471
1342,266.113,35.156,533.203,169.922,32.227,1730817204.475
1343,-40.527,38.574,-728.516,-121.094,53.223,1730817204.479
1344,-270.996,37.598,-1000.000,-230.957,54.688,1730817204.482
1345,-125.000,33.203,-55.664,-20.020,76.172,1730817204.486
1346,223.145,29.785,-863.770,254.395,32.227,1730817204.490
1347,297.852,33.691,672.363,203.125,-10.742,1730817204.494
1348,14.648,39.551,-609.375,-84.961,-8.301,1730817204.498
1349,-245.605,41.016,-1000.000,-226.074,37.598,1730817204.502
1350,-149.902,37.598,-56.152,-40.527,69.824,1730817204.506
1351,201.172,31.738,-863.281,249.512,68.848,1730817204.510
1352,326.172,36.621,680.176,240.234,33.203,1730817204.513
1353,60.059,43.457,-550.781,-52.734,4.883,1730817204.517
1354,-229.980,41.992,-1000.000,-222.656,23.926,1730817204.521
1355,-184.082,39.062,-142.090,-90.332,61.523,1730817204.525
1356,158.203,35.156,-934.570,193.359,55.176,1730817204.528
1357,325.195,33.691,910.156,252.441,5.371,1730817204.532
1358,95.703,33.691,-214.844,-15.625,43.945,1730817204.536
1359,-212.402,33.691,-1000.000,-217.773,67.383,1730817204.540
1360,-222.168,32.227,-502.930,-103.516,37.109,1730817204.543
1361,103.027,28.320,799.316,198.242,3.418,1730817204.547
1362,323.730,28.320,-924.805,283.203,56.641,1730817204.551
1363,137.695,33.691,-73.242,37.598,49.805,1730817204.555
1364,-186.035,36.133,-1000.000,-202.637,4.395,1730817204.559
1365,-233.887,32.715,-432.617,-134.766,44.922,1730817204.563
1366,69.824,27.344,879.883,169.434,29.785,1730817204.567
1367,317.871,24.414,-933.105,293.457,50.293,1730817204.571
1368,166.016,24.414,-56.641,62.500,59.082,1730817204.574
1369,-168.457,29.785,-1000.000,-198.730,0.488,1730817204.578
1370,-268.555,32.715,-578.125,-162.109,18.555,1730817204.581
1371,18.555,27.344,709.473,129.395,37.598,1730817204.585
1372,312.500,29.297,-871.582,285.645,42.969,1730817204.589
1373,211.426,35.156,4.395,92.773,67.383,1730817204.593
1374,-118.164,35.645,-1000.000,-174.805,-6.836,1730817204.597
1375,-263.672,32.227,-860.840,-185.547,-63.965,1730817204.601
1376,-20.020,27.832,281.250,94.238,-23.438,1730817204.605
1377,300.293,30.762,-797.363,300.781,34.668,1730817204.609
1378,254.883,35.156,355.957,147.461,29.785,1730817204.613
1379,-76.660,38.086,-958.984,-137.207,-12.695,1730817204.617
1380,-270.996,36.621,-892.090,-203.125,-56.152,1730817204.619
1381,-64.453,32.715,311.035,49.805,0.977,1730817204.623
1382,278.809,34.180,-810.059,278.809,3.418,1730817204.627
1383,276.367,37.109,414.551,155.762,6.836,1730817204.631
1384,-36.133,40.527,-866.699,-128.418,-21.484,1730817204.635
1385,-262.695,40.527,-1000.000,-221.680,-17.578,1730817204.639
1386,-116.211,35.156,71.777,8.301,20.996,1730817204.643
1387,227.051,32.227,-847.656,257.324,-28.320,1730817204.647
1388,276.855,37.109,642.090,172.852,10.254,1730817204.651
1389,-20.508,41.992,-605.957,-125.488,78.125,1730817204.655
1390,-280.762,37.598,-1000.000,-262.207,21.973,1730817204.658
1391,-172.363,33.691,-98.633,-48.828,-21.484,1730817204.662
1392,184.570,36.133,-883.789,238.281,9.766,1730817204.666
1393,291.992,37.109,784.668,206.543,65.430,1730817204.669
1394,27.344,34.668,-431.641,-75.684,34.180,1730817204.673
1395,-249.512,34.668,-1000.000,-226.074,1.953,1730817204.677
1396,-190.430,32.227,-157.715,-60.547,63.965,1730817204.681
1397,163.574,29.785,-888.184,234.863,10.742,1730817204.685
1398,335.938,34.668,764.160,255.859,-16.602,1730817204.689
1399,105.957,40.527,-486.816,-12.695,13.672,1730817204.693
1400,-198.242,40.039,-1000.000,-203.613,20.508,1730817204.697
1401,-187.988,32.715,-234.375,-73.730,44.434,1730817204.701
1402,147.949,26.855,-993.652,222.168,79.590,1730817204.705
1403,347.656,30.273,-989.258,278.809,95.215,1730817204.708
1404,145.020,36.133,-78.125,24.414,67.871,1730817204.711
1405,-174.805,35.645,-1000.000,-201.172,7.812,1730817204.715
1406,-217.773,34.180,-463.867,-116.211,-1.953,1730817204.719
1407,94.727,31.738,853.027,176.270,-5.859,1730817204.723
1408,333.008,27.832,-907.227,276.367,12.695,1730817204.727
1409,170.410,31.738,-14.648,46.875,51.270,1730817204.731
1410,-155.762,35.156,-1000.000,-201.172,43.945,1730817204.735
1411,-242.676,32.227,-508.301,-154.297,102.539,1730817204.739
1412,42.969,28.320,784.668,143.555,79.590,1730817204.743
1413,320.312,28.320,-871.094,299.805,30.762,1730817204.746
1414,209.961,33.203,43.457,102.051,55.664,1730817204.750
1415,-117.676,34.180,-1000.000,-167.480,-4.395,1730817204.754
1416,-252.930,31.250,-688.477,-165.039,-20.020,1730817204.757
1417,-3.418,28.320,531.738,117.188,-6.836,1730817204.761
1418,309.082,25.879,-807.129,307.617,29.785,1730817204.765
1419,249.023,31.250,268.066,127.930,39.551,1730817204.769
1420,-82.031,38.086,-969.727,-151.855,8.789,1730817204.773
1421,-263.672,36.133,-980.469,-181.152,12.695,1730817204.777
1422,-52.734,31.738,110.840,68.848,-12.695,1730817204.781
1423,281.738,29.785,-812.500,285.645,29.785,1730817204.785
1424,277.344,34.668,454.590,162.598,83.984,1730817204.789
1425,-35.156,41.992,-877.930,-131.348,-16.113,1730817204.793
1426,-252.930,40.527,-965.332,-212.402,-8.301,1730817204.796
1427,-92.285,34.668,200.684,30.273,41.992,1730817204.800
1428,250.977,31.250,-829.102,272.949,-31.738,1730817204.804
1429,295.898,33.691,516.602,175.293,6.836,1730817204.808
1430,-7.324,35.645,-757.812,-120.605,31.250,1730817204.812
1431,-265.137,32.227,-1000.000,-232.910,-13.184,1730817204.816
1432,-154.297,24.902,17.090,-26.855,34.180,1730817204.819
1433,195.801,22.949,-856.934,222.168,14.648,1730817204.823
1434,297.852,29.297,678.223,186.035,-22.461,1730817204.827
1435,29.297,32.715,-549.316,-70.312,7.324,1730817204.831
1436,-248.535,31.738,-1000.000,-216.797,-11.230,1730817204.835
1437,-182.617,28.809,-258.789,-45.410,24.414,1730817204.839
1438,172.852,26.855,-953.613,244.141,39.551,1730817204.843
1439,324.219,28.320,869.141,238.770,19.531,1730817204.847
1440,81.543,31.250,-335.938,-44.434,52.246,1730817204.850
1441,-217.285,31.250,-1000.000,-218.262,56.152,1730817204.854
1442,-201.172,29.785,-228.027,-74.707,26.367,1730817204.858
1443,140.137,26.367,-931.152,221.191,61.523,1730817204.862
1444,335.938,25.391,852.539,265.137,54.199,1730817204.866
1445,133.789,31.250,-346.680,11.719,-31.738,1730817204.870
1446,-180.664,33.691,-1000.000,-196.289,-38.574,1730817204.874
1447,-213.867,31.250,-361.328,-102.539,51.758,1730817204.878
1448,103.027,30.273,923.828,194.824,51.270,1730817204.881
1449,337.891,33.203,-935.059,285.156,64.453,1730817204.885
1450,177.246,39.062,-49.805,57.617,21.973,1730817204.889
1451,-146.484,39.062,-1000.000,-173.828,-54.199,1730817204.893
1452,-227.539,37.109,-731.934,-126.465,-81.543,1730817204.896
1453,66.895,36.621,474.121,163.086,-59.082,1730817204.900
1454,342.285,33.203,-831.055,302.734,-6.348,1730817204.904
1455,228.516,35.156,113.770,96.680,-2.930,1730817204.908
1456,-94.727,39.062,-1000.000,-165.039,12.207,1730817204.912
1457,-218.750,39.551,-708.008,-139.648,29.785,1730817204.916
1458,40.039,36.133,528.809,154.785,20.508,1730817204.920
1459,343.750,36.133,-818.848,324.707,45.410,1730817204.924
1460,273.926,40.039,130.859,148.438,4.395,1730817204.927
1461,-54.199,41.992,-1000.000,-131.348,-55.664,1730817204.931
1462,-223.633,40.527,-778.809,-163.086,-2.441,1730817204.935
1463,-9.766,38.574,406.250,102.539,11.719,1730817204.939
1464,306.152,39.062,-809.570,304.688,16.602,1730817204.942
1465,276.855,38.574,352.539,164.551,12.207,1730817204.946
1466,-35.156,36.133,-904.297,-114.258,-3.906,1730817204.950
1467,-242.188,34.668,-1000.000,-185.547,18.066,1730817204.954
1468,-76.660,33.203,70.801,48.340,82.031,1730817204.958
1469,264.648,33.203,-826.660,282.715,65.918,1730817204.962
1470,300.293,35.156,508.301,185.059,29.297,1730817204.966
1471,-1.465,36.621,-790.527,-98.145,26.855,1730817204.970
1472,-250.000,39.551,-1000.000,-220.703,63.965,1730817204.973
1473,-131.348,36.133,48.340,-15.137,79.102,1730817204.977
1474,212.402,31.738,-854.980,249.512,67.383,1730817204.981
1475,300.781,34.668,664.062,200.684,109.375,1730817204.985
1476,28.809,37.109,-577.637,-74.707,56.641,1730817204.988
1477,-239.746,37.598,-1000.000,-221.680,28.809,1730817204.992
1478,-169.434,33.691,-25.879,-49.805,49.316,1730817204.996
1479,168.457,31.250,-894.531,222.656,-17.578,1730817205.000
1480,307.129,36.133,838.867,212.891,38.086,1730817205.004
1481,63.965,41.992,-344.238,-53.223,58.594,1730817205.008
1482,-233.887,41.992,-1000.000,-230.957,50.293,1730817205.012
1483,-206.055,39.062,-363.281,-100.586,53.223,1730817205.015
1484,131.836,38.574,932.617,189.453,-0.488,1730817205.019
1485,311.035,34.180,-1000.000,227.051,72.754,1730817205.023
1486,93.262,37.598,-166.016,-30.273,54.199,1730817205.027
1487,-218.262,41.992,-1000.000,-231.934,10.254,1730817205.031
1488,-235.840,36.621,-310.059,-131.348,58.105,1730817205.034
1489,85.938,31.250,983.887,166.992,49.805,1730817205.038
1490,310.547,32.715,990.723,252.441,23.438,1730817205.042
1491,138.672,39.062,-118.652,13.672,46.387,1730817205.046
1492,-181.641,42.480,-1000.000,-219.727,9.766,1730817205.050
1493,-250.488,39.062,-562.012,-151.367,-23.926,1730817205.054
1494,40.039,32.715,719.727,142.578,-1.953,1730817205.058
1495,300.293,32.227,-848.145,263.184,26.367,1730817205.061
1496,178.223,41.016,102.051,48.828,19.531,1730817205.065
1497,-147.461,45.898,-1000.000,-204.590,41.992,1730817205.069
1498,-264.160,41.992,-770.996,-181.152,68.359,1730817205.073
1499,0.977,35.156,451.172,103.027,24.902,1730817205.077
1500,297.363,35.156,-799.805,278.320,12.695,1730817205.080
1501,214.844,36.621,245.605,104.004,7.324,1730817205.084
1502,-112.305,38.574,-1000.000,-164.062,-9.766,1730817205.088
1503,-268.066,44.434,-765.137,-188.477,25.391,1730817205.092
1504,-35.645,41.016,465.820,77.637,8.301,1730817205.096
1505,288.086,36.621,-811.523,284.668,-28.809,1730817205.100
1506,251.953,35.645,214.355,134.766,1.953,1730817205.103
1507,-70.801,38.574,-1000.000,-152.344,8.789,1730817205.107
1508,-264.648,39.551,-877.930,-212.402,-7.812,1730817205.111
1509,-77.637,34.668,277.344,42.480,19.531,1730817205.115
1510,254.883,28.809,-822.266,275.391,14.160,1730817205.119
1511,279.297,33.691,509.766,169.922,23.926,1730817205.123
1512,-20.508,39.062,-744.629,-103.516,31.738,1730817205.126
1513,-262.207,35.156,-1000.000,-205.566,-11.230,1730817205.130
1514,-123.535,32.715,-111.328,2.441,-52.246,1730817205.134
1515,221.680,26.855,-849.609,261.719,-23.926,1730817205.138
1516,283.691,26.367,630.371,197.266,-0.977,1730817205.142
1517,-5.859,33.691,-666.016,-92.773,7.324,1730817205.145
1518,-270.996,34.668,-1000.000,-238.281,17.090,1730817205.149
1519,-178.711,27.832,-58.105,-50.293,1.953,1730817205.153
1520,167.969,23.438,-849.609,235.352,67.871,1730817205.157
1521,284.668,27.344,624.023,214.355,79.102,1730817205.161
1522,27.832,31.738,-621.094,-62.012,61.523,1730817205.165
1523,-261.719,32.227,-1000.000,-235.352,55.176,1730817205.169
1524,-223.145,28.809,-210.449,-85.449,20.508,1730817205.172
1525,122.559,25.879,-947.754,205.566,63.965,1730817205.176
1526,295.898,30.762,910.156,223.145,65.430,1730817205.180
1527,63.477,34.668,-250.000,-49.805,21.484,1730817205.184
1528,-253.906,35.156,-1000.000,-251.953,-20.508,1730817205.188
1529,-267.578,31.738,-412.109,-140.137,-62.012,1730817205.192
1530,66.895,27.344,903.809,162.109,-32.715,1730817205.196
1531,285.156,29.297,-967.285,233.398,-12.207,1730817205.199
1532,93.750,36.621,-98.633,-19.043,31.738,1730817205.203
1533,-225.098,39.062,-1000.000,-246.094,100.098,1730817205.207
1534,-277.832,37.109,-452.148,-164.062,36.621,1730817205.211
1535,35.645,32.715,863.770,138.184,-11.230,1730817205.215
1536,299.316,33.203,-931.152,254.395,29.785,1730817205.218
1537,155.273,40.527,-69.336,30.762,2.441,1730817205.222
1538,-177.246,41.016,-1000.000,-224.609,-39.551,1730817205.226
1539,-275.879,38.086,-566.895,-188.965,18.066,1730817205.230
1540,8.301,33.203,696.777,104.980,56.641,1730817205.234
1541,294.434,28.320,-835.449,264.160,11.230,1730817205.238
1542,189.941,33.203,123.047,72.266,20.508,1730817205.242
1543,-136.230,38.574,-1000.000,-197.266,32.715,1730817205.246
1544,-272.949,40.527,-859.863,-197.754,-3.906,1730817205.249
1545,-22.949,37.109,254.883,83.008,6.836,1730817205.253
1546,297.363,30.273,-807.129,282.715,-6.348,1730817205.257
1547,254.395,33.203,350.098,135.742,-2.441,1730817205.261
1548,-67.383,39.551,-977.051,-139.648,20.508,1730817205.264
1549,-256.836,36.621,-888.672,-181.641,4.395,1730817205.268
1550,-50.781,26.855,317.871,81.055,34.668,1730817205.272
1551,292.480,22.461,-811.523,304.688,110.352,1730817205.276
1552,299.316,28.320,422.363,191.895,119.629,1730817205.280
1553,-8.301,32.227,-862.305,-80.566,102.539,1730817205.284
1554,-225.098,31.738,-1000.000,-170.898,60.059,1730817205.288
1555,-64.941,29.297,101.074,63.477,33.203,1730817205.292
1556,287.598,27.832,-850.586,328.125,21.973,1730817205.296
1557,354.492,30.762,645.508,258.301,46.387,1730817205.300
1558,62.012,33.691,-593.262,-28.320,64.453,1730817205.303
1559,-201.172,36.621,-1000.000,-162.109,-2.930,1730817205.307
1560,-95.703,34.180,-126.465,28.320,6.348,1730817205.311
1561,256.836,28.809,-893.066,298.340,-21.973,1730817205.314
1562,367.676,30.762,787.109,270.996,-24.414,1730817205.318
1563,98.145,38.574,-428.223,-8.301,53.223,1730817205.322
1564,-195.801,41.016,-1000.000,-175.781,25.879,1730817205.326
1565,-144.043,40.039,-204.102,-20.508,-8.301,1730817205.330
1566,202.637,35.645,-899.414,266.113,29.785,1730817205.334
1567,354.492,34.668,753.418,272.949,65.918,1730817205.338
1568,110.840,40.039,-501.953,-5.859,74.219,1730817205.342
1569,-204.590,40.039,-1000.000,-205.566,62.988,1730817205.346
1570,-201.172,37.109,-255.859,-89.844,14.648,1730817205.350
1571,137.207,34.668,999.023,211.426,26.367,1730817205.353
1572,343.262,35.645,-999.512,276.367,90.820,1730817205.357
1573,136.719,39.062,-108.887,20.996,-1.465,1730817205.361
1574,-185.547,39.062,-1000.000,-187.500,-47.852,1730817205.364
1575,-216.309,37.109,-453.125,-94.238,47.363,1730817205.368
1576,91.309,35.645,866.699,187.012,35.645,1730817205.372
1577,324.707,33.691,-930.664,280.273,-15.625,1730817205.376
1578,161.133,33.691,-42.480,53.223,50.781,1730817205.380
1579,-171.387,40.527,-1000.000,-192.871,37.109,1730817205.384
1580,-258.301,39.062,-561.523,-150.391,-18.555,1730817205.388
1581,28.320,30.273,731.934,143.555,18.066,1730817205.392
1582,315.430,27.344,-868.164,291.016,20.508,1730817205.396
1583,201.172,30.762,21.484,86.426,12.207,1730817205.400
1584,-144.531,33.691,-1000.000,-178.223,-1.953,1730817205.403
1585,-271.484,33.691,-684.570,-181.152,-15.625,1730817205.407
1586,-3.906,31.738,529.785,100.098,-22.461,1730817205.411
1587,314.453,29.297,-808.594,302.734,-15.625,1730817205.414
1588,239.746,27.832,287.598,139.648,28.320,1730817205.418
1589,-99.609,31.250,-958.984,-138.184,29.785,1730817205.422
1590,-264.160,36.133,-979.004,-177.734,-15.137,1730817205.426
1591,-37.109,32.227,119.141,86.914,19.043,1730817205.430
1592,294.922,23.926,-815.430,302.734,4.395,1730817205.434
1593,285.156,25.879,446.777,178.223,-18.066,1730817205.438
1594,-26.855,32.715,-875.000,-93.262,33.691,1730817205.442
1595,-232.422,31.738,-970.215,-171.387,20.020,1730817205.446
1596,-56.641,23.438,189.941,67.871,31.250,1730817205.449
1597,294.434,19.531,-813.965,313.965,73.730,1730817205.453
1598,342.773,24.902,438.477,230.469,48.340,1730817205.457
1599,45.410,32.715,-832.031,-41.016,-13.184,1730817205.461
1600,-206.055,30.762,-1000.000,-155.273,-28.809,1730817205.464
1601,-88.379,21.973,-4.395,53.223,6.836,1730817205.468
1602,267.578,23.438,-866.699,316.895,17.090,1730817205.472
1603,367.676,27.832,689.941,273.926,-17.578,1730817205.476
1604,93.262,31.250,-527.832,0.488,-23.438,1730817205.480
1605,-189.453,30.273,-1000.000,-152.832,41.504,1730817205.484
1606,-124.512,27.344,-195.801,12.207,53.223,1730817205.488
1607,228.027,27.344,-929.688,288.086,20.996,1730817205.492
1608,366.211,27.832,838.867,284.180,13.184,1730817205.495
1609,104.980,27.832,-356.445,7.324,-31.250,1730817205.499
1610,-188.965,29.785,-1000.000,-159.180,-27.344,1730817205.503
1611,-160.156,32.715,-213.379,-19.043,19.043,1730817205.507
1612,181.152,30.273,-924.316,263.672,65.918,1730817205.510
1613,386.719,32.227,846.680,322.266,83.008,1730817205.514
1614,191.406,40.039,-364.746,77.148,13.184,1730817205.518
1615,-114.746,41.016,-1000.000,-128.418,-8.789,1730817205.522
1616,-131.348,37.109,-296.875,-20.508,44.434,1730817205.526
1617,199.219,36.133,959.473,275.879,61.035,1730817205.530
1618,442.871,39.551,-956.543,373.047,36.133,1730817205.534
1619,282.227,46.875,-22.461,150.391,4.883,1730817205.538
1620,-40.039,54.199,-1000.000,-80.566,37.598,1730817205.541
1621,-111.328,50.781,-526.855,-24.414,88.867,1730817205.545
1622,174.805,47.852,760.742,248.535,55.176,1730817205.549
1623,437.988,50.293,-860.352,365.234,33.691,1730817205.553
1624,309.082,52.734,116.699,162.598,35.645,1730817205.557
1625,-34.668,58.594,-1000.000,-87.402,9.766,1730817205.561
1626,-181.152,51.758,-707.520,-93.750,27.832,1730817205.565
1627,61.523,42.969,564.453,163.574,22.949,1730817205.569
1628,352.051,47.363,-824.219,319.824,-9.277,1730817205.573
1629,272.461,53.711,125.000,144.531,4.883,1730817205.577
1630,-63.477,51.758,-1000.000,-126.465,28.320,1730817205.580
1631,-250.977,46.387,-781.738,-173.828,19.531,1730817205.584
1632,-45.898,42.969,394.043,60.059,37.598,1730817205.588
1633,263.672,41.992,-809.570,229.980,47.363,1730817205.592
1634,229.004,41.504,369.629,86.426,3.418,1730817205.596
1635,-100.586,39.062,-897.461,-184.570,13.672,1730817205.600
1636,-318.848,40.527,-1000.000,-259.766,70.312,1730817205.604
1637,-156.250,37.598,49.316,-41.504,14.648,1730817205.608
1638,183.105,33.691,-831.055,187.500,-61.523,1730817205.611
1639,219.727,37.598,548.828,102.539,-24.902,1730817205.615
1640,-81.543,43.457,-744.141,-173.828,75.195,1730817205.619
1641,-313.965,44.434,-1000.000,-279.297,74.219,1730817205.623
1642,-191.406,37.598,61.523,-77.148,-8.301,1730817205.627
1643,147.949,33.691,-818.848,179.199,-32.227,1730817205.631
1644,238.770,38.574,514.160,137.695,28.809,1730817205.635
1645,-43.457,41.504,-767.578,-141.113,55.176,1730817205.638
1646,-316.406,39.062,-1000.000,-287.598,0.000,1730817205.642
1647,-233.887,39.062,-92.285,-109.375,-15.137,1730817205.646
1648,115.234,41.016,-889.648,162.598,14.648,1730817205.650
1649,249.512,41.504,755.859,147.461,4.883,1730817205.654
1650,4.883,44.434,-428.711,-105.957,48.340,1730817205.658
1651,-279.297,43.945,-1000.000,-260.742,33.691,1730817205.662
1652,-250.977,35.645,-289.551,-125.488,16.602,1730817205.666
1653,78.613,30.762,-998.535,148.926,13.184,1730817205.670
1654,263.184,32.715,971.191,188.965,0.977,1730817205.674
1655,59.082,38.574,-169.922,-48.340,36.133,1730817205.677
1656,-243.164,40.527,-1000.000,-247.559,27.832,1730817205.681
1657,-267.090,37.109,-333.008,-159.668,37.598,1730817205.685
1658,48.340,34.180,965.820,125.488,62.500,1730817205.689
1659,284.180,34.668,-1000.000,210.938,72.266,1730817205.692
1660,125.488,38.574,-115.723,5.859,35.645,1730817205.696
1661,-187.500,41.016,-1000.000,-207.520,-25.879,1730817205.700
1662,-254.883,37.598,-512.695,-154.785,-3.418,1730817205.704
1663,33.691,37.109,761.230,122.559,4.395,1730817205.708
1664,295.898,38.574,-861.328,238.281,8.789,1730817205.712
1665,181.152,42.969,102.539,44.922,-8.789,1730817205.716
1666,-130.371,43.945,-1000.000,-178.711,2.441,1730817205.720
1667,-250.000,38.574,-766.113,-168.945,75.684,1730817205.724
1668,0.000,35.645,418.945,85.449,28.809,1730817205.727
1669,286.621,34.180,-814.941,243.652,-40.039,1730817205.731
1670,212.402,37.109,248.047,83.496,-10.742,1730817205.735
1671,-106.445,40.039,-1000.000,-163.574,57.129,1730817205.739
1672,-270.020,39.551,-811.035,-194.336,79.102,1730817205.743
1673,-54.199,36.621,406.250,53.711,44.922,1730817205.746
1674,259.277,34.668,-806.641,245.117,25.391,1730817205.750
1675,238.281,36.133,194.824,112.793,5.371,1730817205.754
1676,-71.289,36.133,-1000.000,-158.203,30.762,1730817205.758
1677,-261.230,35.156,-870.117,-212.891,21.484,1730817205.762
1678,-89.844,36.621,273.438,21.484,-13.672,1730817205.766
1679,228.027,36.621,-827.637,235.352,8.789,1730817205.770
1680,255.859,35.645,506.348,149.902,13.672,1730817205.773
1681,-34.668,37.109,-747.559,-108.887,64.941,1730817205.777
1682,-262.207,37.598,-1000.000,-208.496,46.387,1730817205.781
1683,-136.230,39.551,-29.785,-15.137,-54.688,1730817205.785
1684,192.871,40.039,-828.125,214.355,24.902,1730817205.789
1685,270.996,41.016,552.246,165.527,22.461,1730817205.793
1686,9.277,42.480,-731.934,-84.473,-10.742,1730817205.797
1687,-250.000,39.551,-1000.000,-219.238,39.551,1730817205.800
1688,-173.828,32.715,-11.230,-52.246,4.883,1730817205.804
1689,162.109,30.273,-873.047,206.055,-14.648,1730817205.808
1690,290.527,35.645,709.961,195.801,-6.348,1730817205.812
1691,51.758,41.016,-485.352,-50.781,50.781,1730817205.816
1692,-227.051,39.062,-1000.000,-204.102,86.426,1730817205.819
1693,-207.031,32.715,-168.457,-70.312,41.504,1730817205.823
1694,110.840,29.785,-937.012,187.500,-24.902,1730817205.827
1695,287.598,32.227,915.527,219.727,-12.207,1730817205.831
1696,85.449,36.621,-232.910,-14.160,30.762,1730817205.835
1697,-204.102,38.086,-1000.000,-201.172,-14.648,1730817205.839
1698,-218.262,36.621,-486.816,-107.422,-26.367,1730817205.843
1699,93.262,33.203,806.152,165.039,55.176,1730817205.847
1700,315.430,34.180,-941.406,242.188,91.797,1730817205.850
1701,151.367,41.016,-73.242,23.438,71.289,1730817205.854
1702,-163.574,39.062,-1000.000,-199.707,52.734,1730817205.858
1703,-238.770,29.297,-430.176,-134.277,16.602,1730817205.862
1704,43.457,26.367,891.113,146.973,66.406,1730817205.865
1705,295.898,31.738,-959.473,245.605,93.262,1730817205.869
1706,169.922,37.109,-68.848,38.086,88.867,1730817205.873
1707,-142.090,37.598,-1000.000,-185.059,84.961,1730817205.877
1708,-254.883,30.762,-569.824,-148.438,65.918,1730817205.881
1709,-2.930,26.855,678.223,115.234,52.734,1730817205.885
1710,286.133,32.715,-853.516,256.348,50.781,1730817205.889
1711,213.379,37.109,178.711,86.426,48.828,1730817205.893
1712,-97.656,39.062,-1000.000,-146.484,39.062,1730817205.897
1713,-255.371,33.691,-775.879,-160.645,65.918,1730817205.901
1714,-45.898,28.320,450.195,71.289,63.477,1730817205.904
1715,259.277,29.297,-809.570,256.348,40.527,1730817205.908
1716,221.191,29.297,324.219,123.535,65.918,1730817205.912
1717,-95.215,29.785,-975.098,-137.695,76.660,1730817205.916
1718,-277.832,30.762,-870.117,-199.219,75.684,1730817205.920
1719,-89.844,31.738,323.242,22.949,91.797,1730817205.924
1720,237.793,32.227,-809.570,250.488,61.523,1730817205.927
1721,261.230,31.738,345.703,160.156,25.391,1730817205.931
1722,-28.320,32.227,-927.246,-99.121,-5.859,1730817205.935
1723,-243.164,33.203,-975.586,-183.105,-25.391,1730817205.939
1724,-104.492,28.809,137.207,19.043,-3.906,1730817205.943
1725,213.379,23.926,-849.121,244.629,48.828,1730817205.947
1726,278.320,29.785,625.000,181.641,69.824,1730817205.951
1727,22.949,36.133,-626.465,-66.895,18.066,1730817205.955
1728,-223.633,32.227,-1000.000,-181.641,-6.348,1730817205.958
1729,-144.043,27.832,-61.523,-8.301,24.902,1730817205.962
1730,196.289,27.344,-852.051,251.953,64.941,1730817205.966
1731,333.984,30.762,648.926,240.234,36.133,1730817205.970
1732,104.492,33.691,-595.215,0.977,2.930,1730817205.974
1733,-159.668,31.738,-1000.000,-128.906,11.719,1730817205.978
1734,-114.258,28.809,-198.242,24.414,-17.090,1730817205.982
1735,214.355,21.973,-909.668,291.992,16.602,1730817205.985
1736,390.625,20.508,756.348,324.219,34.180,1730817205.989
1737,195.312,26.855,-500.488,98.633,23.926,1730817205.993
1738,-78.613,29.785,-1000.000,-67.383,16.602,1730817205.997
1739,-69.824,31.250,-229.980,49.805,-2.930,1730817206.001
1740,251.465,30.273,-983.887,326.660,-7.812,1730817206.005
1741,464.355,29.785,973.145,399.902,-13.672,1730817206.008
1742,303.711,36.133,-143.066,190.918,-76.172,1730817206.012
1743,4.395,37.109,-1000.000,-4.883,-53.711,1730817206.016
1744,-59.570,30.273,-495.117,60.059,-18.066,1730817206.020
1745,228.027,26.855,817.871,323.730,16.113,1730817206.024
1746,479.980,30.762,-933.594,425.781,39.062,1730817206.028
1747,344.727,35.156,-60.547,226.562,14.648,1730817206.032
1748,31.738,37.598,-1000.000,-2.441,51.270,1730817206.036
1749,-68.848,39.062,-496.094,24.414,65.918,1730817206.040
1750,181.641,38.574,809.082,280.762,92.773,1730817206.043
1751,454.590,40.527,-911.133,406.738,37.109,1730817206.047
1752,369.141,42.969,-34.180,231.445,-54.688,1730817206.051
1753,53.223,41.504,-1000.000,-2.441,-10.742,1730817206.055
1754,-96.680,38.574,-632.812,-14.648,67.871,1730817206.059
1755,119.141,36.621,597.168,220.215,37.109,1730817206.063
1756,413.086,35.156,-830.566,382.812,25.879,1730817206.067
1757,373.535,37.598,185.059,244.629,20.020,1730817206.071
1758,58.105,39.551,-1000.000,-10.254,-43.457,1730817206.075
1759,-135.254,39.062,-928.223,-59.570,-10.254,1730817206.078
1760,40.039,36.133,188.477,162.598,15.625,1730817206.082
1761,353.027,33.203,-823.730,356.445,-3.906,1730817206.086
1762,359.863,37.109,463.379,252.930,87.891,1730817206.090
1763,68.848,41.504,-831.543,-9.766,86.426,1730817206.094
1764,-143.555,41.504,-979.980,-93.750,-24.902,1730817206.098
1765,-8.301,37.109,196.289,107.910,1.953,1730817206.101
1766,311.523,36.133,-813.477,325.195,2.441,1730817206.105
1767,360.840,35.645,437.988,255.371,41.016,1730817206.109
1768,87.402,36.621,-823.730,2.441,86.426,1730817206.113
1769,-152.832,38.574,-1000.000,-107.422,46.387,1730817206.117
1770,-68.359,35.645,19.043,62.012,50.293,1730817206.121
1771,254.395,31.250,-866.211,301.758,58.105,1730817206.125
1772,363.770,33.691,685.547,276.855,34.668,1730817206.129
1773,114.258,35.645,-520.996,24.902,-15.625,1730817206.133
1774,-148.438,35.645,-1000.000,-115.234,-16.113,1730817206.136
1775,-99.121,33.691,-259.277,19.531,47.363,1730817206.140
1776,214.844,29.297,-977.051,267.578,57.129,1730817206.144
1777,360.840,27.832,872.559,279.297,17.090,1730817206.148
1778,144.043,32.715,-312.988,35.645,42.969,1730817206.152
1779,-138.184,35.645,-1000.000,-125.000,4.883,1730817206.155
1780,-141.113,31.250,-226.562,-18.066,6.348,1730817206.159
1781,162.109,30.273,-924.316,232.422,40.039,1730817206.163
1782,354.492,33.691,835.938,286.621,1.465,1730817206.167
1783,172.852,38.086,-372.070,62.012,-10.254,1730817206.171
1784,-127.930,40.039,-1000.000,-138.184,-20.996,1730817206.175
1785,-171.387,38.086,-333.984,-68.359,8.301,1730817206.179
1786,112.305,33.691,927.734,191.406,24.414,1730817206.183
1787,335.449,33.203,-952.637,281.250,-34.668,1730817206.187
1788,192.871,35.645,-22.461,78.613,-14.160,1730817206.190
1789,-110.840,36.621,-1000.000,-131.836,11.719,1730817206.194
1790,-197.754,35.156,-564.453,-98.633,18.066,1730817206.198
1791,62.012,30.273,718.750,152.832,45.410,1730817206.202
1792,321.289,30.762,-856.934,278.320,57.617,1730817206.206
1793,223.633,36.621,90.820,104.004,105.469,1730817206.210
1794,-84.961,39.062,-1000.000,-126.465,67.871,1730817206.213
1795,-213.379,35.156,-646.484,-131.348,39.062,1730817206.217
1796,18.066,32.715,615.234,119.629,56.641,1730817206.221
1797,303.223,30.273,-844.238,274.902,59.570,1730817206.225
1798,248.535,31.250,91.797,123.535,26.367,1730817206.229
1799,-55.176,34.180,-1000.000,-107.910,-16.113,1730817206.233
1800,-213.379,28.320,-794.922,-134.277,-26.367,1730817206.237
1801,-14.160,26.855,375.000,94.727,-2.441,1730817206.240
1802,273.926,31.738,-817.871,267.090,47.363,1730817206.244
1803,254.883,34.668,424.805,140.137,86.426,1730817206.248
1804,-36.133,35.156,-833.008,-110.840,111.328,1730817206.252
1805,-241.211,37.109,-1000.000,-185.059,94.727,1730817206.256
1806,-89.355,34.668,20.996,19.531,53.711,1730817206.260
1807,232.422,28.809,-830.566,238.281,77.148,1730817206.264
1808,283.691,32.227,530.273,170.898,26.367,1730817206.268
1809,16.113,37.109,-776.367,-72.754,8.301,1730817206.272
1810,-215.820,38.086,-1000.000,-179.688,47.852,1730817206.275
1811,-106.934,36.133,88.867,1.953,3.906,1730817206.279
1812,212.891,32.715,-841.797,244.629,41.504,1730817206.283
1813,304.199,34.668,597.656,207.031,56.152,1730817206.287
1814,60.059,39.551,-661.621,-46.387,9.766,1730817206.291
1815,-200.195,36.133,-1000.000,-181.641,36.621,1730817206.295
1816,-144.531,32.227,-44.922,-39.551,12.207,1730817206.299
1817,177.246,32.227,-879.883,203.613,39.062,1730817206.303
1818,310.547,33.691,702.637,217.285,43.457,1730817206.306
1819,89.355,37.109,-480.957,-11.230,-29.785,1730817206.310
1820,-182.617,38.574,-1000.000,-169.434,-34.180,1730817206.314
1821,-171.875,38.574,-391.113,-59.570,-19.043,1730817206.318
1822,133.301,36.133,913.086,190.918,14.648,1730817206.322
1823,317.871,36.621,967.285,236.816,53.223,1730817206.326
1824,132.324,41.504,-197.266,14.648,43.945,1730817206.330
1825,-166.016,41.992,-1000.000,-177.734,31.738,1730817206.333
1826,-200.684,38.574,-328.125,-101.074,36.133,1730817206.337
1827,91.797,37.598,989.258,160.156,-3.906,1730817206.341
1828,310.547,38.574,939.453,243.652,-45.898,1730817206.345
1829,158.691,41.016,-224.609,46.875,-27.344,1730817206.349
1830,-142.578,42.480,-1000.000,-158.203,-27.344,1730817206.353
1831,-218.750,40.527,-437.500,-112.793,-4.395,1730817206.357
1832,44.434,37.109,833.008,147.949,27.832,1730817206.361
1833,296.387,35.645,-904.297,259.277,-17.578,1730817206.365
1834,192.383,37.598,37.109,73.242,-19.043,1730817206.368
1835,-109.863,41.504,-1000.000,-147.949,40.039,1730817206.372
1836,-229.980,37.109,-737.305,-145.996,50.781,1730817206.376
1837,2.930,29.785,487.793,96.191,102.051,1730817206.380
1838,285.645,35.156,-814.941,257.324,84.473,1730817206.384
1839,233.887,39.551,207.520,113.281,9.277,1730817206.388
1840,-67.383,37.598,-1000.000,-121.094,22.949,1730817206.391
1841,-230.469,36.621,-825.195,-147.461,34.668,1730817206.395
1842,-27.832,32.715,369.629,86.914,0.000,1730817206.399
1843,272.461,29.785,-813.477,268.066,-20.020,1730817206.403
1844,260.254,35.645,166.016,138.184,-22.949,1730817206.407
1845,-29.297,39.062,-1000.000,-103.516,10.254,1730817206.411
1846,-229.492,34.180,-839.844,-160.156,35.156,1730817206.415
1847,-75.684,32.227,287.598,42.480,5.371,1730817206.419
1848,238.770,31.250,-836.426,254.883,-0.977,1730817206.423
1849,276.367,32.227,540.039,173.340,70.801,1730817206.427
1850,0.488,38.086,-724.121,-83.008,47.363,1730817206.431
1851,-236.328,35.645,-1000.000,-186.523,-37.598,1730817206.435
1852,-123.047,31.738,-60.547,-9.277,0.488,1730817206.438
1853,206.543,26.367,-854.492,226.562,23.438,1730817206.442
1854,297.852,27.832,600.098,187.988,16.113,1730817206.446
1855,47.363,36.621,-673.828,-55.176,49.316,1730817206.450
1856,-203.125,37.109,-1000.000,-176.758,16.113,1730817206.454
1857,-138.672,32.227,-17.090,-22.949,-19.043,1730817206.458
1858,179.688,32.715,-851.074,221.680,3.418,1730817206.462
1859,313.965,36.621,639.648,215.332,66.406,1730817206.466
1860,88.379,41.016,-636.230,-30.762,69.336,1730817206.470
1861,-190.918,39.551,-1000.000,-181.641,62.988,1730817206.474
1862,-175.781,35.156,-95.703,-52.734,82.520,1730817206.478
1863,134.277,31.250,-934.082,198.242,47.852,1730817206.481
1864,312.012,32.227,922.363,227.539,54.199,1730817206.485
1865,117.676,33.691,-208.496,1.465,58.594,1730817206.489
1866,-177.734,37.109,-1000.000,-171.875,35.156,1730817206.493
1867,-199.707,37.109,-344.238,-81.055,81.055,1730817206.497
1868,100.586,29.785,947.266,179.688,37.109,1730817206.501
1869,313.477,30.273,-949.707,250.977,57.129,1730817206.505
1870,157.227,33.691,-42.480,37.109,60.547,1730817206.509
1871,-143.066,34.668,-1000.000,-161.621,-36.621,1730817206.513
1872,-217.285,35.156,-391.602,-104.492,58.105,1730817206.516
1873,54.688,31.250,925.293,155.273,73.242,1730817206.520
1874,300.293,29.785,-962.402,259.277,11.719,1730817206.524
1875,182.129,34.180,-107.910,66.895,22.949,1730817206.528
1876,-121.582,36.133,-1000.000,-150.391,-2.930,1730817206.532
1877,-237.793,33.691,-610.352,-133.789,48.828,1730817206.536
1878,1.465,33.691,623.047,109.863,54.199,1730817206.540
1879,276.855,34.180,-832.520,247.559,53.223,1730817206.544
1880,217.285,37.598,166.504,93.262,49.316,1730817206.547
1881,-74.707,41.992,-1000.000,-136.230,19.531,1730817206.551
1882,-228.516,39.062,-853.027,-158.203,-18.555,1730817206.555
1883,-24.902,33.691,347.656,78.125,11.230,1730817206.559
1884,273.438,31.250,-804.199,253.906,29.297,1730817206.563
1885,255.371,36.621,351.562,129.395,25.879,1730817206.567
1886,-34.180,41.504,-952.637,-114.746,12.207,1730817206.570
1887,-226.074,40.039,-854.980,-176.758,0.977,1730817206.574
1888,-64.453,31.738,342.285,44.434,43.457,1730817206.578
1889,246.094,26.855,-807.129,245.117,38.086,1730817206.582
1890,271.973,33.203,332.031,146.484,53.223,1730817206.586
1891,-0.977,40.039,-948.242,-90.820,9.766,1730817206.590
1892,-222.656,36.621,-983.887,-170.410,-39.551,1730817206.594
1893,-100.098,32.227,139.648,27.344,0.488,1730817206.598
1894,217.285,32.227,-846.680,249.023,42.969,1730817206.602
1895,283.203,33.203,622.070,188.965,45.410,1730817206.605
1896,28.809,34.180,-611.328,-54.199,13.672,1730817206.609
1897,-216.309,35.156,-1000.000,-171.875,33.203,1730817206.613
1898,-147.949,34.668,-92.285,-12.207,44.434,1730817206.617
1899,169.922,32.227,-885.742,224.609,-10.742,1730817206.621
1900,290.039,33.691,756.836,206.543,4.395,1730817206.625
1901,57.617,38.574,-479.004,-32.227,-3.418,1730817206.629
1902,-208.008,38.574,-1000.000,-183.105,-23.438,1730817206.633
1903,-175.781,34.668,-106.934,-55.176,25.391,1730817206.636
1904,133.789,33.691,-899.414,197.266,-8.789,1730817206.640
1905,296.875,35.645,777.344,218.750,-31.250,1730817206.644
1906,104.004,39.551,-388.184,-7.812,18.066,1730817206.648
1907,-176.758,37.598,-1000.000,-181.641,25.879,1730817206.652
1908,-197.754,34.668,-220.215,-87.891,62.988,1730817206.656
1909,95.703,34.668,-979.004,167.969,80.566,1730817206.660
1910,306.641,36.621,967.773,232.910,24.414,1730817206.663
1911,154.297,40.527,-129.395,26.855,-0.977,1730817206.667
1912,-138.672,42.969,-1000.000,-162.598,29.785,1730817206.671
1913,-208.008,41.016,-580.078,-103.027,-36.133,1730817206.675
1914,54.688,35.645,711.914,140.137,-46.875,1730817206.679
1915,297.363,32.227,-885.742,246.094,21.484,1730817206.683
1916,181.641,36.133,13.184,65.918,-41.992,1730817206.687
1917,-124.023,37.598,-1000.000,-158.203,-71.777,1730817206.691
1918,-236.328,30.273,-543.945,-137.207,30.762,1730817206.695
1919,12.695,26.855,747.559,113.281,1.465,1730817206.698
1920,286.621,30.273,-874.023,251.465,17.090,1730817206.702
1921,208.496,36.133,18.555,85.449,52.734,1730817206.706
1922,-89.844,38.086,-1000.000,-146.484,-0.977,1730817206.710
1923,-238.281,32.715,-687.988,-153.320,-19.531,1730817206.714
1924,-29.297,34.180,518.555,84.961,17.578,1730817206.718
1925,267.578,37.598,-819.824,254.883,57.129,1730817206.722
1926,238.281,39.551,214.844,122.070,8.789,1730817206.726
1927,-52.246,40.039,-985.352,-112.793,9.766,1730817206.729
1928,-235.352,35.645,-956.543,-162.598,45.410,1730817206.733
1929,-70.312,31.738,125.000,46.875,32.227,1730817206.737
1930,235.840,28.809,-827.148,243.652,34.180,1730817206.741
1931,250.000,30.273,497.559,145.996,40.039,1730817206.745
1932,-26.855,33.691,-822.266,-101.074,30.273,1730817206.749
1933,-238.281,33.203,-973.633,-183.105,33.691,1730817206.753
1934,-112.305,32.715,197.266,11.230,9.277,1730817206.756
1935,208.496,31.250,-837.891,235.352,35.156,1730817206.760
1936,280.762,34.668,555.664,180.664,73.242,1730817206.764
1937,27.832,37.109,-715.820,-62.988,62.988,1730817206.768
1938,-213.867,35.645,-1000.000,-176.270,67.871,1730817206.772
1939,-141.602,30.762,16.602,-15.625,59.082,1730817206.776
1940,173.828,29.297,-891.602,216.797,20.996,1730817206.780
1941,292.480,31.738,764.160,195.801,29.297,1730817206.784
1942,58.105,34.180,-406.250,-38.086,66.895,1730817206.788
1943,-206.543,36.133,-1000.000,-182.617,15.137,1730817206.791
1944,-167.969,36.133,-174.316,-59.082,31.738,1730817206.796
1945,143.066,36.621,-916.992,182.617,44.922,1730817206.800
1946,295.898,38.574,855.469,209.961,1.465,1730817206.803
1947,96.680,41.992,-305.664,-13.184,-20.996,1730817206.807
1948,-183.594,40.527,-1000.000,-183.594,4.883,1730817206.811
1949,-198.730,37.109,-309.570,-80.078,33.691,1730817206.815
1950,104.492,38.574,-995.117,174.805,8.789,1730817206.819
1951,307.617,37.109,883.301,226.562,32.715,1730817206.823
1952,133.301,38.086,-323.242,7.812,84.473,1730817206.827
1953,-162.109,41.504,-1000.000,-181.641,77.637,1730817206.831
1954,-229.980,40.527,-418.945,-129.395,40.527,1730817206.835
1955,14.648,34.668,860.840,98.145,6.348,1730817206.838
1956,228.516,35.156,-917.480,172.363,19.043,1730817206.842
1957,89.844,42.480,-1.953,-28.809,28.809,1730817206.846
1958,-229.004,43.457,-1000.000,-259.277,15.137,1730817206.850
1959,-341.309,41.992,-644.043,-252.441,-4.395,1730817206.854
1960,-96.191,40.039,635.254,-16.113,-18.555,1730817206.858
1961,165.527,37.598,-865.723,107.910,-15.137,1730817206.862
1962,77.148,43.457,61.523,-61.035,-12.695,1730817206.866
1963,-229.004,43.945,-1000.000,-296.875,2.930,1730817206.870
1964,-370.605,44.922,-661.621,-301.758,24.902,1730817206.873
1965,-150.391,47.852,585.938,-59.570,9.766,1730817206.877
1966,141.113,45.898,-845.215,96.680,8.789,1730817206.881
1967,105.469,46.875,151.367,-43.945,29.785,1730817206.885
1968,-168.945,46.875,-1000.000,-264.160,39.551,1730817206.889
1969,-338.867,49.316,-795.898,-291.992,66.406,1730817206.893
1970,-160.645,48.340,382.812,-70.312,44.922,1730817206.897
1971,164.551,41.016,-819.824,129.395,-25.879,1730817206.901
1972,189.453,38.086,419.434,47.852,-48.828,1730817206.905
1973,-75.684,46.387,-854.492,-174.316,13.672,1730817206.909
1974,-268.555,48.828,-1000.000,-235.840,29.297,1730817206.913
1975,-124.512,43.945,73.242,-27.832,-6.348,1730817206.916
1976,204.102,40.527,-850.098,199.219,-3.906,1730817206.920
1977,270.020,36.621,646.484,144.531,83.496,1730817206.924
1978,9.766,36.621,-608.398,-96.680,138.672,1730817206.928
1979,-225.586,37.598,-1000.000,-201.172,-12.695,1730817206.932
1980,-127.441,37.598,42.969,-22.461,-35.645,1730817206.936
1981,196.777,33.691,-835.449,215.820,50.781,1730817206.939
1982,306.641,37.109,574.219,189.453,59.082,1730817206.943
1983,73.730,43.457,-660.645,-45.410,70.801,1730817206.947
1984,-187.500,42.969,-1000.000,-173.340,43.457,1730817206.951
1985,-143.066,38.086,-117.676,-25.391,29.297,1730817206.955
1986,166.504,35.645,-932.617,211.914,-13.672,1730817206.959
1987,316.406,34.180,869.629,220.703,37.109,1730817206.963
1988,114.258,34.180,-269.043,-4.395,31.250,1730817206.967
1989,-161.621,35.645,-1000.000,-166.992,-97.656,1730817206.971
1990,-179.688,30.762,-321.289,-74.219,-69.336,1730817206.974
1991,113.770,26.855,983.887,173.340,-2.441,1730817206.978
1992,320.312,32.227,976.562,240.234,48.828,1730817206.982
1993,151.367,36.621,-150.879,30.273,31.250,1730817206.986
1994,-140.625,37.598,-1000.000,-155.273,28.320,1730817206.990
1995,-187.988,36.133,-353.027,-75.684,18.555,1730817206.994
1996,89.844,32.227,969.238,185.547,33.691,1730817206.997
1997,324.219,32.227,953.613,270.996,72.266,1730817207.001
1998,201.172,31.250,-215.820,73.730,34.180,1730817207.005
1999,-89.844,28.809,-1000.000,-128.418,-27.832,1730817207.009
2000,-185.547,31.738,-476.074,-87.891,-30.273,1730817207.013
2001,58.594,30.273,772.949,155.273,8.789,1730817207.017
2002,317.871,26.855,-853.027,275.879,77.148,1730817207.021
2003,232.910,32.227,217.773,105.469,142.578,1730817207.025
2004,-62.012,35.156,-1000.000,-109.375,72.266,1730817207.028
2005,-199.219,33.203,-743.164,-103.516,44.434,1730817207.032
2006,14.648,27.832,514.160,127.930,59.082,1730817207.036
2007,302.734,28.809,-817.383,281.738,8.301,1730817207.040
2008,264.648,30.762,280.273,145.508,19.531,1730817207.044
2009,-25.391,31.250,-997.070,-85.938,21.973,1730817207.048
2010,-196.289,31.250,-853.027,-124.023,-27.344,1730817207.052
2011,-15.137,27.832,357.910,94.727,2.441,1730817207.056
2012,271.484,24.414,-801.758,270.508,64.453,1730817207.060
2013,259.766,28.320,217.285,147.461,62.012,1730817207.063
2014,-14.648,34.668,-1000.000,-88.867,33.203,1730817207.067
2015,-221.191,33.203,-888.184,-155.762,37.598,1730817207.071
2016,-87.402,29.297,248.047,41.504,20.508,1730817207.075
2017,225.098,23.926,-835.938,245.117,-17.090,1730817207.079
2018,283.691,27.344,551.758,170.898,8.789,1730817207.083
2019,33.691,32.227,-706.543,-59.570,-8.301,1730817207.087
2020,-197.266,30.762,-1000.000,-156.738,-1.465,1730817207.090
2021,-108.398,26.855,-37.109,14.648,24.414,1730817207.094
2022,198.730,20.508,-870.605,237.793,12.207,1730817207.098
2023,295.410,20.996,686.523,197.754,44.922,1730817207.102
2024,57.129,27.832,-563.965,-33.691,-11.719,1730817207.106
2025,-196.777,25.391,-1000.000,-158.203,-49.316,1730817207.110
2026,-146.484,17.090,-30.273,-15.625,40.527,1730817207.114
2027,166.504,23.438,-846.680,229.004,18.066,1730817207.118
2028,318.848,29.297,613.770,230.957,-46.387,1730817207.121
2029,115.234,29.785,-637.695,6.348,3.906,1730817207.125
2030,-157.227,37.109,-1000.000,-145.020,20.020,1730817207.129
2031,-160.645,39.062,-152.832,-32.227,15.625,1730817207.133
2032,139.160,33.691,-939.453,212.402,81.055,1730817207.137
2033,333.984,34.668,875.488,250.977,85.449,1730817207.141
2034,160.645,40.527,-279.785,41.016,2.930,1730817207.145
2035,-130.859,42.480,-1000.000,-136.719,9.766,1730817207.149
2036,-179.688,37.109,-395.508,-59.570,66.406,1730817207.153
2037,93.262,32.715,901.855,181.641,115.234,1730817207.156
2038,314.941,30.762,-966.309,253.418,91.797,1730817207.160
2039,181.152,29.785,-68.359,62.988,48.340,1730817207.164
2040,-112.305,33.203,-1000.000,-133.789,-9.766,1730817207.168
2041,-200.684,32.227,-469.727,-86.914,-38.574,1730817207.172
2042,45.898,27.344,817.871,155.273,48.828,1730817207.176
